Waveleght	Intensity	Error
625.43	0.09058	0.00052
625.48	0.08478	0.00039
625.52	0.08768	0.00023
625.56	0.08575	0.00042
625.6	0.08656	0.00041
625.64	0.08676	0.00062
625.68	0.09226	0.0004
625.72	0.08656	0.00034
625.76	0.08391	0.00023
625.8	0.08585	0.00036
625.84	0.08519	0.00044
625.88	0.08325	0.00032
625.92	0.083	0.00047
625.95	0.08676	0.00048
626.0	0.09043	0.00036
626.04	0.08458	0.00052
626.07	0.08921	0.0004
626.12	0.08575	0.00036
626.16	0.08671	0.00044
626.19	0.07999	0.00041
626.24	0.07999	0.00041
626.28	0.08442	0.0004
626.31	0.08768	0.0004
626.36	0.08514	0.00051
626.4	0.0803	0.00038
626.43	0.08473	0.00036
626.48	0.0858	0.00056
626.52	0.08595	0.00033
626.56	0.08855	0.00047
626.6	0.08488	0.00059
626.64	0.08177	0.00042
626.68	0.08295	0.00057
626.72	0.08758	0.00041
626.76	0.08676	0.00048
626.8	0.08676	0.00062
626.84	0.09247	0.00027
626.88	0.08564	0.00033
626.92	0.0885	0.00051
626.95	0.08493	0.0004
627.0	0.08661	0.00052
627.04	0.09068	0.00041
627.07	0.09063	0.00041
627.12	0.09033	0.00036
627.16	0.08458	0.00025
627.19	0.08829	0.00027
627.24	0.08743	0.00044
627.28	0.08936	0.00039
627.31	0.0942	0.00025
627.36	0.09038	0.00046
627.4	0.09053	0.00056
627.43	0.08844	0.00044
627.48	0.08687	0.00053
627.52	0.09058	0.00041
627.56	0.08687	0.00042
627.6	0.08844	0.00038
627.64	0.09221	0.00025
627.68	0.09236	0.00042
627.72	0.08753	0.00034
627.76	0.09033	0.00048
627.8	0.0886	0.00041
627.84	0.09119	0.00061
627.88	0.09333	0.00055
627.92	0.09236	0.00036
627.95	0.09058	0.00052
628.0	0.09074	0.00056
628.04	0.09425	0.00034
628.07	0.0916	0.00034
628.12	0.09639	0.00031
628.16	0.09399	0.00036
628.19	0.09231	0.0005
628.24	0.10015	0.00031
628.28	0.09985	0.00041
628.31	0.09517	0.00047
628.36	0.09496	0.00056
628.4	0.09333	0.0005
628.43	0.09257	0.00033
628.48	0.09924	0.00034
628.52	0.09461	0.0004
628.56	0.09995	0.0005
628.6	0.09995	0.00031
628.64	0.10158	0.00046
628.68	0.09919	0.00046
628.72	0.09608	0.00031
628.76	0.09618	0.00025
628.8	0.09634	0.00051
628.84	0.1029	0.00025
628.88	0.10321	0.00059
628.92	0.1028	0.00034
628.95	0.10178	0.00025
629.0	0.10275	0.00046
629.04	0.09817	0.0004
629.07	0.09715	0.00033
629.12	0.09995	0.00031
629.16	0.1001	0.00027
629.19	0.0971	0.00055
629.24	0.09797	0.00015
629.28	0.09608	0.0002
629.31	0.09359	0.0004
629.36	0.09608	0.00038
629.4	0.09608	0.00044
629.43	0.0941	0.00023
629.48	0.09415	0.00034
629.52	0.09242	0.00051
629.56	0.09705	0.00042
629.6	0.09629	0.00057
629.64	0.09155	0.00046
629.68	0.0941	0.00023
629.72	0.09822	0.00041
629.76	0.09807	0.00053
629.8	0.09328	0.0004
629.84	0.09058	0.00057
629.88	0.0859	0.00038
629.92	0.09165	0.00025
629.95	0.08844	0.00031
630.0	0.0858	0.00056
630.04	0.08595	0.00056
630.07	0.08768	0.00033
630.12	0.08946	0.00038
630.16	0.0859	0.00038
630.19	0.0859	0.00038
630.24	0.08412	0.0006
630.28	0.08575	0.00036
630.31	0.08468	0.00038
630.36	0.08478	0.00032
630.4	0.0859	0.00055
630.43	0.0885	0.0004
630.48	0.08666	0.0004
630.52	0.08295	0.00041
630.56	0.08687	0.00053
630.6	0.08687	0.00036
630.64	0.08666	0.0004
630.68	0.0886	0.00041
630.72	0.08289	0.0004
630.76	0.08009	0.00031
630.8	0.08289	0.00046
630.84	0.08656	0.00025
630.88	0.08972	0.0004
630.92	0.07877	0.00038
630.95	0.07897	0.00052
631.0	0.08514	0.00046
631.04	0.08488	0.0005
631.07	0.08676	0.00058
631.12	0.08478	0.00032
631.16	0.07831	0.00023
631.19	0.08687	0.00053
631.24	0.08651	0.00034
631.28	0.08264	0.00064
631.31	0.08855	0.00034
631.36	0.08575	0.00048
631.4	0.08177	0.00053
631.43	0.09145	0.00036
631.48	0.08289	0.0006
631.52	0.083	0.00041
631.56	0.08106	0.00033
631.6	0.08773	0.00031
631.64	0.08697	0.00033
631.68	0.08381	0.00036
631.72	0.08605	0.00034
631.76	0.09043	0.00036
631.8	0.0915	0.00044
631.84	0.0915	0.00044
631.88	0.08564	0.0004
631.92	0.09527	0.00052
631.95	0.08564	0.00051
632.0	0.0914	0.00039
632.04	0.08941	0.00036
632.07	0.09501	0.00027
632.12	0.09532	0.00033
632.16	0.09348	0.00053
632.19	0.09613	0.00046
632.24	0.09914	0.00044
632.28	0.09425	0.00052
632.31	0.09155	0.0004
632.36	0.10469	0.00036
632.4	0.10448	0.00046
632.43	0.10749	0.00034
632.48	0.10362	0.00039
632.52	0.10178	0.00041
632.56	0.10545	0.00034
632.6	0.10082	0.00041
632.64	0.10759	0.00031
632.68	0.10942	0.00041
632.72	0.10917	0.00048
632.76	0.10377	0.00046
632.8	0.10632	0.00023
632.84	0.10733	0.00046
632.88	0.10932	0.00044
632.92	0.10576	0.00038
632.95	0.10957	0.00023
633.0	0.10927	0.00042
633.04	0.10565	0.00051
633.07	0.1083	0.00031
633.12	0.10937	0.00046
633.16	0.09888	0.0004
633.19	0.10565	0.00056
633.24	0.10652	0.00033
633.28	0.09425	0.00061
633.31	0.0942	0.00052
633.36	0.10352	0.00031
633.4	0.10087	0.00025
633.43	0.0998	0.00047
633.48	0.09685	0.00051
633.52	0.0998	0.00025
633.56	0.09919	0.0006
633.6	0.09888	0.00056
633.64	0.0941	0.00033
633.68	0.09822	0.00041
633.72	0.09155	0.0004
633.76	0.09435	0.0002
633.8	0.09236	0.00053
633.84	0.08687	0.00036
633.88	0.08687	0.00048
633.92	0.08585	0.00048
633.95	0.0942	0.00041
634.0	0.08391	0.00033
634.04	0.08977	0.00031
634.07	0.08575	0.00027
634.12	0.08386	0.00038
634.16	0.08493	0.00023
634.19	0.08488	0.0005
634.24	0.08488	0.0005
634.28	0.08763	0.00076
634.31	0.08289	0.00046
634.36	0.08274	0.00039
634.4	0.08559	0.00025
634.43	0.08381	0.00042
634.48	0.08391	0.0004
634.52	0.08193	0.00025
634.56	0.08855	0.00052
634.6	0.08575	0.00036
634.64	0.08396	0.00034
634.68	0.08381	0.00036
634.72	0.08493	0.00046
634.76	0.08478	0.00046
634.8	0.08493	0.0004
634.84	0.08575	0.00042
634.88	0.08844	0.0005
634.92	0.08315	0.0005
634.95	0.08315	0.00038
635.0	0.08544	0.00033
635.04	0.08865	0.00047
635.07	0.0885	0.00046
635.12	0.0859	0.00031
635.16	0.08773	0.00031
635.19	0.08096	0.00065
635.24	0.08951	0.0004
635.28	0.08773	0.00031
635.31	0.0859	0.00031
635.36	0.08585	0.00042
635.4	0.08284	0.00064
635.43	0.0889	0.00053
635.48	0.07897	0.00052
635.52	0.08396	0.00041
635.56	0.08478	0.00051
635.6	0.08946	0.00031
635.64	0.08926	0.00044
635.68	0.08656	0.00041
635.72	0.09028	0.00031
635.76	0.08829	0.00036
635.8	0.08177	0.00027
635.84	0.083	0.00041
635.88	0.08585	0.00036
635.92	0.08188	0.00033
635.95	0.08208	0.0004
636.0	0.0857	0.0005
636.04	0.0859	0.0005
636.07	0.08575	0.00027
636.12	0.08289	0.0004
636.16	0.08595	0.0004
636.19	0.08498	0.00047
636.24	0.08478	0.00023
636.28	0.08483	0.00048
636.31	0.08396	0.00034
636.36	0.08447	0.00034
636.4	0.08193	0.00041
636.43	0.08101	0.00047
636.48	0.08768	0.0004
636.52	0.08687	0.00058
636.56	0.08661	0.00034
636.6	0.08473	0.00048
636.64	0.08183	0.0005
636.68	0.08289	0.0004
636.72	0.08279	0.00048
636.76	0.08366	0.0002
636.8	0.08101	0.00041
636.84	0.08106	0.00023
636.88	0.08773	0.00031
636.92	0.0857	0.0005
636.95	0.08412	0.00033
637.0	0.08203	0.00057
637.04	0.08188	0.0004
637.07	0.08595	0.00023
637.12	0.0858	0.00032
637.16	0.086	0.00041
637.19	0.08564	0.00046
637.24	0.08839	0.00036
637.28	0.08972	0.00046
637.31	0.08386	0.00038
637.36	0.0861	0.00025
637.4	0.08473	0.00027
637.43	0.08498	0.00057
637.48	0.08788	0.00042
637.52	0.08096	0.00052
637.56	0.08284	0.00038
637.6	0.08564	0.00033
637.64	0.08468	0.0005
637.68	0.08656	0.00034
637.72	0.08656	0.00025
637.76	0.08778	0.00042
637.8	0.09028	0.00038
637.84	0.08758	0.00052
637.88	0.08692	0.00031
637.92	0.08412	0.00033
637.95	0.08208	0.00046
638.0	0.08193	0.00041
638.04	0.08284	0.00038
638.07	0.08081	0.00044
638.12	0.08508	0.00052
638.16	0.0885	0.00051
638.19	0.08493	0.00023
638.24	0.08463	0.00051
638.28	0.08289	0.00033
638.31	0.08289	0.00033
638.36	0.08025	0.00048
638.4	0.08758	0.00034
638.43	0.08483	0.00036
638.48	0.08381	0.00027
638.52	0.08763	0.00047
638.56	0.08091	0.00047
638.6	0.08111	0.00044
638.64	0.0833	0.00036
638.68	0.08371	0.00036
638.72	0.086	0.00041
638.76	0.08391	0.00046
638.8	0.08936	0.00039
638.84	0.08834	0.00046
638.88	0.0885	0.0004
638.92	0.08844	0.00055
638.95	0.08208	0.00033
639.0	0.08488	0.00038
639.04	0.08946	0.00044
639.07	0.08407	0.00034
639.12	0.08498	0.00061
639.16	0.08183	0.00038
639.19	0.08183	0.00044
639.24	0.08483	0.00058
639.28	0.08493	0.00046
639.31	0.0858	0.00039
639.36	0.08758	0.00025
639.4	0.09053	0.00046
639.43	0.08855	0.00034
639.48	0.0888	0.00027
639.52	0.08753	0.00034
639.56	0.0858	0.00023
639.6	0.08768	0.00033
639.64	0.08824	0.00031
639.68	0.08676	0.00042
639.72	0.08758	0.00047
639.76	0.08468	0.00038
639.8	0.08483	0.00027
639.84	0.09063	0.00041
639.88	0.09328	0.00046
639.92	0.08488	0.00031
639.95	0.08956	0.00025
640.0	0.08478	0.00039
640.04	0.08676	0.00042
640.07	0.08697	0.00046
640.12	0.08463	0.00033
640.16	0.08544	0.00056
640.19	0.0858	0.00032
640.24	0.09028	0.00031
640.28	0.08376	0.00046
640.31	0.08483	0.00036
640.36	0.08478	0.00039
640.4	0.08783	0.00023
640.43	0.08844	0.00038
640.48	0.08855	0.00057
640.52	0.08865	0.00047
640.56	0.08671	0.00055
640.6	0.08407	0.00034
640.64	0.08676	0.00036
640.68	0.08671	0.0005
640.72	0.08503	0.00041
640.76	0.08773	0.00055
640.8	0.09048	0.00055
640.84	0.08987	0.00023
640.88	0.08839	0.00027
640.92	0.08636	0.00027
640.95	0.08646	0.00046
641.0	0.08483	0.00042
641.04	0.0885	0.00033
641.07	0.09053	0.00033
641.12	0.09165	0.00047
641.16	0.08407	0.00057
641.19	0.08493	0.0004
641.24	0.08941	0.00048
641.28	0.08956	0.00041
641.31	0.08748	0.00033
641.36	0.09231	0.00038
641.4	0.08687	0.00053
641.43	0.09033	0.00036
641.48	0.08824	0.00038
641.52	0.08794	0.0005
641.56	0.08773	0.0002
641.6	0.086	0.00034
641.64	0.08962	0.00034
641.68	0.08758	0.00034
641.72	0.08946	0.00044
641.76	0.08783	0.00023
641.8	0.08753	0.00047
641.84	0.08778	0.00053
641.88	0.08931	0.00058
641.92	0.0858	0.00023
641.95	0.09323	0.00034
642.0	0.09216	0.00025
642.04	0.08936	0.00076
642.07	0.09053	0.0004
642.12	0.09623	0.00025
642.16	0.09608	0.0005
642.19	0.09425	0.00025
642.24	0.09048	0.00055
642.28	0.0972	0.00034
642.31	0.09343	0.00039
642.36	0.09231	0.00038
642.4	0.09822	0.00034
642.43	0.09827	0.00041
642.48	0.0944	0.00027
642.52	0.09786	0.00046
642.56	0.10189	0.00034
642.6	0.10387	0.00034
642.64	0.10565	0.00051
642.68	0.10377	0.00033
642.72	0.10387	0.00034
642.76	0.10749	0.00057
642.8	0.11421	0.00071
642.84	0.11894	0.00036
642.88	0.12149	0.00048
642.92	0.12154	0.0005
642.95	0.13004	0.00036
643.0	0.13289	0.00052
643.04	0.13284	0.00065
643.07	0.14328	0.00036
643.12	0.15071	0.00057
643.16	0.15652	0.00036
643.19	0.15275	0.00025
643.24	0.1697	0.00038
643.28	0.16716	0.0002
643.31	0.1668	0.00042
643.36	0.17897	0.00023
643.4	0.18671	0.00044
643.43	0.18401	0.00036
643.48	0.18554	0.00027
643.52	0.19409	0.0004
643.56	0.2	0.00033
643.6	0.19175	0.00027
643.64	0.19149	0.00057
643.68	0.19261	0.00059
643.72	0.20091	0.00042
643.76	0.19989	0.00048
643.8	0.19526	0.00051
643.84	0.19058	0.0005
643.88	0.18773	0.0002
643.92	0.18762	0.00023
643.95	0.19429	0.00048
644.0	0.18381	0.00052
644.04	0.17709	0.00033
644.07	0.17907	0.00031
644.12	0.1669	0.00051
644.16	0.16227	0.00031
644.19	0.16222	0.00042
644.24	0.15937	0.00034
644.28	0.15265	0.00051
644.31	0.14165	0.00033
644.36	0.14613	0.00052
644.4	0.13503	0.00051
644.43	0.13116	0.00027
644.48	0.12256	0.00038
644.52	0.1224	0.00027
644.56	0.11492	0.00055
644.6	0.114	0.00052
644.64	0.11029	0.00048
644.68	0.11034	0.00031
644.72	0.09965	0.00044
644.76	0.10372	0.0002
644.8	0.10372	0.00038
644.84	0.10005	0.00039
644.88	0.0942	0.00047
644.92	0.10015	0.00031
644.95	0.09155	0.00046
645.0	0.09221	0.00034
645.04	0.097	0.00032
645.07	0.0969	0.00038
645.12	0.08916	0.00057
645.16	0.09812	0.00038
645.19	0.08977	0.0005
645.24	0.08198	0.00025
645.28	0.09236	0.00048
645.31	0.08946	0.00044
645.36	0.09038	0.00039
645.4	0.09058	0.00052
645.43	0.08967	0.00025
645.48	0.0857	0.00038
645.52	0.08401	0.00041
645.56	0.08483	0.00027
645.6	0.08855	0.00041
645.64	0.0914	0.00023
645.68	0.0915	0.00044
645.72	0.08814	0.00041
645.76	0.08865	0.00052
645.8	0.08941	0.00042
645.84	0.08687	0.00053
645.88	0.09221	0.00034
645.92	0.08941	0.00048
645.95	0.08682	0.00039
646.0	0.08651	0.00041
646.04	0.08941	0.00042
646.07	0.08936	0.00051
646.12	0.08651	0.00034
646.16	0.08931	0.00048
646.19	0.0914	0.00039
646.24	0.08788	0.00042
646.28	0.08763	0.00025
646.31	0.08951	0.00046
646.36	0.08972	0.00033
646.4	0.09313	0.00034
646.43	0.08717	0.00051
646.48	0.08936	0.00032
646.52	0.08946	0.00038
646.56	0.08941	0.00048
646.6	0.08956	0.00034
646.64	0.09303	0.0005
646.68	0.09201	0.00031
646.72	0.09155	0.00033
646.76	0.08951	0.0004
646.8	0.08671	0.00055
646.84	0.09348	0.00027
646.88	0.09333	0.00055
646.92	0.09348	0.00048
646.95	0.09247	0.00066
647.0	0.09048	0.00031
647.04	0.09323	0.00041
647.07	0.09318	0.00034
647.12	0.09603	0.00027
647.16	0.09629	0.00025
647.19	0.09588	0.00044
647.24	0.09888	0.0006
647.28	0.1	0.00042
647.31	0.09532	0.0004
647.36	0.10275	0.00023
647.4	0.10555	0.00038
647.43	0.1056	0.00042
647.48	0.10545	0.00041
647.52	0.11039	0.00056
647.56	0.10912	0.00038
647.6	0.11609	0.00034
647.64	0.11777	0.00031
647.68	0.12632	0.00047
647.72	0.12088	0.00027
647.76	0.12072	0.00034
647.8	0.12653	0.00046
647.84	0.1332	0.00027
647.88	0.12531	0.00057
647.92	0.13381	0.00046
647.95	0.13386	0.00047
648.0	0.13228	0.00046
648.04	0.13203	0.00044
648.07	0.12256	0.00044
648.12	0.12347	0.00039
648.16	0.13004	0.00053
648.19	0.13376	0.00038
648.24	0.12245	0.00023
648.28	0.12821	0.00046
648.31	0.12856	0.00032
648.36	0.12337	0.00038
648.4	0.12368	0.00047
648.43	0.11772	0.00046
648.48	0.11507	0.00025
648.52	0.11416	0.0004
648.56	0.11594	0.00064
648.6	0.10647	0.00047
648.64	0.10626	0.0002
648.68	0.10453	0.00031
648.72	0.10087	0.00034
648.76	0.09786	0.00046
648.8	0.10295	0.00033
648.84	0.0972	0.00073
648.88	0.0943	0.00023
648.92	0.09435	0.00031
648.95	0.09445	0.00023
649.0	0.09018	0.00034
649.04	0.09715	0.00033
649.07	0.09613	0.00033
649.12	0.09206	0.0004
649.16	0.09033	0.00042
649.19	0.08651	0.00061
649.24	0.08661	0.00047
649.28	0.08692	0.00031
649.31	0.08977	0.00044
649.36	0.09318	0.00057
649.4	0.09226	0.00056
649.43	0.08748	0.00033
649.48	0.0916	0.00041
649.52	0.09165	0.00034
649.56	0.09231	0.00044
649.6	0.08844	0.0005
649.64	0.08951	0.00046
649.68	0.0915	0.00064
649.72	0.08844	0.00038
649.76	0.08967	0.00041
649.8	0.08962	0.00047
649.84	0.08962	0.00047
649.88	0.08682	0.00039
649.92	0.08967	0.00047
649.95	0.08855	0.00025
650.0	0.08885	0.00051
650.04	0.08768	0.00033
650.07	0.08498	0.00047
650.12	0.08473	0.00048
650.16	0.08676	0.00027
650.19	0.09313	0.00047
650.24	0.08682	0.00051
650.28	0.08396	0.00034
650.31	0.08763	0.00052
650.36	0.08483	0.00042
650.4	0.08493	0.00056
650.43	0.09033	0.00042
650.48	0.08666	0.00046
650.52	0.08386	0.00031
650.56	0.08676	0.00048
650.6	0.08676	0.00042
650.64	0.08585	0.00036
650.68	0.0858	0.00039
650.72	0.08967	0.00034
650.76	0.08778	0.00042
650.8	0.08926	0.00038
650.84	0.09135	0.00042
650.88	0.08941	0.00062
650.92	0.08788	0.00036
650.95	0.08666	0.0004
651.0	0.08687	0.00048
651.04	0.08193	0.00034
651.07	0.08004	0.00033
651.12	0.08386	0.00031
651.16	0.08193	0.00069
651.19	0.0859	0.00031
651.24	0.09216	0.00041
651.28	0.09221	0.00034
651.31	0.08478	0.00023
651.36	0.08167	0.00048
651.4	0.08473	0.00027
651.43	0.08478	0.00056
651.48	0.0885	0.0004
651.52	0.08417	0.00031
651.56	0.09038	0.00039
651.6	0.09058	0.00061
651.64	0.08096	0.00041
651.68	0.08386	0.00038
651.72	0.08381	0.00036
651.76	0.08585	0.00015
651.8	0.086	0.00041
651.84	0.08773	0.00044
651.88	0.08768	0.0004
651.92	0.08768	0.00033
651.95	0.08391	0.00046
652.0	0.083	0.00025
652.04	0.08946	0.00038
652.07	0.08967	0.00034
652.12	0.09033	0.00048
652.16	0.09038	0.00032
652.19	0.08554	0.00047
652.24	0.0886	0.00034
652.28	0.0859	0.00038
652.31	0.08188	0.00051
652.36	0.086	0.00025
652.4	0.08478	0.00046
652.43	0.08962	0.00041
652.48	0.08972	0.00033
652.52	0.08682	0.00032
652.56	0.08493	0.00046
652.6	0.08671	0.0005
652.64	0.08488	0.00055
652.68	0.09048	0.00031
652.72	0.08503	0.00047
652.76	0.08447	0.00047
652.8	0.08575	0.00027
652.84	0.08687	0.00048
652.88	0.08962	0.00047
652.92	0.0887	0.0004
652.95	0.0885	0.00033
653.0	0.08788	0.00042
653.04	0.08773	0.00055
653.07	0.08666	0.00046
653.12	0.08671	0.00038
653.16	0.08956	0.00041
653.19	0.08478	0.00046
653.24	0.08951	0.0004
653.28	0.08651	0.00052
653.31	0.08386	0.00038
653.36	0.08376	0.00039
653.4	0.09063	0.00047
653.43	0.08671	0.0005
653.48	0.08865	0.00034
653.52	0.08773	0.0002
653.56	0.0831	0.00051
653.6	0.08844	0.0005
653.64	0.08875	0.00059
653.68	0.08962	0.00025
653.72	0.0858	0.00023
653.76	0.08463	0.00046
653.8	0.07994	0.00041
653.84	0.08493	0.00046
653.88	0.08386	0.00038
653.92	0.08738	0.00036
653.95	0.08788	0.00015
654.0	0.08951	0.00046
654.04	0.0941	0.00033
654.07	0.09236	0.00027
654.12	0.0857	0.00038
654.16	0.08483	0.00042
654.19	0.083	0.00041
654.24	0.08315	0.00044
654.28	0.08671	0.00044
654.31	0.08834	0.00051
654.36	0.09135	0.00042
654.4	0.08692	0.00044
654.43	0.08086	0.00033
654.48	0.08676	0.00036
654.52	0.08692	0.00038
654.56	0.08401	0.00034
654.6	0.08595	0.00051
654.64	0.08763	0.00034
654.68	0.08804	0.00047
654.72	0.08101	0.00047
654.76	0.0858	0.00023
654.8	0.08473	0.00042
654.84	0.08483	0.00048
654.88	0.08656	0.00034
654.92	0.0832	0.00027
654.95	0.08778	0.00053
655.0	0.08962	0.00047
655.04	0.08463	0.00033
655.07	0.08946	0.00038
655.12	0.08941	0.00027
655.16	0.09038	0.00039
655.19	0.08763	0.00034
655.24	0.07974	0.00015
655.28	0.08682	0.00046
655.31	0.09018	0.00041
655.36	0.08183	0.00038
655.4	0.08213	0.00038
655.43	0.08183	0.00038
655.48	0.08177	0.00036
655.52	0.08676	0.00062
655.56	0.08768	0.00033
655.6	0.09135	0.00036
655.64	0.08595	0.00033
655.68	0.086	0.00041
655.72	0.08595	0.00033
655.76	0.08106	0.00046
655.8	0.0859	0.00044
655.84	0.08656	0.00034
655.88	0.08839	0.00036
655.92	0.0858	0.00046
655.95	0.0857	0.00038
656.0	0.08575	0.00036
656.04	0.08396	0.00041
656.07	0.08992	0.00036
656.12	0.08463	0.00033
656.16	0.08794	0.00031
656.19	0.08417	0.0005
656.24	0.08514	0.0006
656.28	0.08855	0.00047
656.31	0.0886	0.00052
656.36	0.08004	0.00046
656.4	0.07999	0.00041
656.43	0.08855	0.00034
656.48	0.08666	0.0004
656.52	0.08768	0.00023
656.56	0.08564	0.00033
656.6	0.0858	0.00032
656.64	0.0859	0.00031
656.68	0.08687	0.00048
656.72	0.08972	0.0004
656.76	0.08463	0.00056
656.8	0.08967	0.00047
656.84	0.08483	0.00027
656.88	0.08478	0.00046
656.92	0.08473	0.00058
656.95	0.08844	0.00031
657.0	0.08554	0.00047
657.04	0.08941	0.00042
657.07	0.0916	0.00034
657.12	0.08193	0.00041
657.16	0.0886	0.00041
657.19	0.08844	0.00038
657.24	0.0858	0.00039
657.28	0.08401	0.00034
657.31	0.08967	0.00041
657.36	0.0886	0.00025
657.4	0.0861	0.00025
657.43	0.08463	0.00046
657.48	0.08468	0.00038
657.52	0.09063	0.00041
657.56	0.08936	0.00051
657.6	0.08203	0.00041
657.64	0.08407	0.00034
657.68	0.08692	0.00044
657.72	0.08401	0.00041
657.76	0.08422	0.00042
657.8	0.08473	0.00036
657.84	0.08605	0.00034
657.88	0.08967	0.00034
657.92	0.08788	0.00015
657.95	0.08941	0.00058
658.0	0.08763	0.00041
658.04	0.08956	0.00061
658.07	0.08936	0.00046
658.12	0.08208	0.00033
658.16	0.08564	0.00051
658.19	0.08738	0.00042
658.24	0.08855	0.00034
658.28	0.08585	0.00036
658.31	0.083	0.00052
658.36	0.08295	0.00041
658.4	0.09043	0.00042
658.43	0.08401	0.00052
658.48	0.08274	0.0006
658.52	0.08743	0.00038
658.56	0.08371	0.00042
658.6	0.08473	0.00027
658.64	0.08666	0.00033
658.68	0.08676	0.00027
658.72	0.08753	0.00041
658.76	0.08967	0.00041
658.8	0.08951	0.00033
658.84	0.09038	0.00046
658.88	0.08682	0.0006
658.92	0.08768	0.00023
658.95	0.08778	0.00048
659.0	0.08875	0.00031
659.04	0.09048	0.00031
659.07	0.08778	0.00036
659.12	0.09247	0.00042
659.16	0.09425	0.00034
659.19	0.08936	0.00046
659.24	0.08951	0.0006
659.28	0.08972	0.0004
659.31	0.09822	0.00034
659.36	0.08839	0.00042
659.4	0.0916	0.00052
659.43	0.09817	0.00023
659.48	0.09517	0.00052
659.52	0.09995	0.0005
659.56	0.0997	0.00056
659.6	0.10066	0.00044
659.64	0.09618	0.00047
659.68	0.09995	0.00055
659.72	0.10652	0.0004
659.76	0.0998	0.00025
659.8	0.10942	0.00069
659.84	0.10922	0.00046
659.88	0.10952	0.00052
659.92	0.11115	0.00059
659.95	0.10738	0.00047
660.0	0.11696	0.00031
660.04	0.11411	0.00052
660.07	0.11696	0.00031
660.12	0.11696	0.00038
660.16	0.11293	0.0004
660.19	0.11105	0.00034
660.24	0.11029	0.00036
660.28	0.11298	0.00034
660.31	0.12083	0.00064
660.36	0.11405	0.00041
660.4	0.114	0.00061
660.43	0.11421	0.00031
660.48	0.11227	0.00023
660.52	0.11599	0.00033
660.56	0.10586	0.00034
660.6	0.1083	0.0002
660.64	0.10718	0.00039
660.68	0.10173	0.00051
660.72	0.10209	0.00032
660.76	0.11024	0.00032
