Raman-Spectrum _CDCl3 _pol002.dat
27/09/2021
09:53:17
_CDCl3
_pol0 Temp: NON
X in nm	Y Signal 	Error Signal				
570.04000	0.07653	0.00064
570.08000	0.07648	0.00046
570.12000	0.07933	0.00033
570.16000	0.08305	0.00047
570.20000	0.07897	0.00052
570.24000	0.07612	0.00056
570.28000	0.07796	0.00041
570.32000	0.08106	0.00040
570.36000	0.08106	0.00040
570.40000	0.07816	0.00032
570.44000	0.07913	0.00042
570.48000	0.08096	0.00034
570.52000	0.08233	0.00050
570.56000	0.07541	0.00047
570.60000	0.08213	0.00038
570.64000	0.08157	0.00167
570.68000	0.07729	0.00046
570.72000	0.07908	0.00044
570.76000	0.08376	0.00056
570.80000	0.08310	0.00023
570.84000	0.08198	0.00025
570.88000	0.07821	0.00036
570.92000	0.08396	0.00025
570.96000	0.08412	0.00033
571.00000	0.08203	0.00057
571.04000	0.07724	0.00031
571.08000	0.07847	0.00052
571.12000	0.08132	0.00044
571.16000	0.08030	0.00050
571.20000	0.08188	0.00040
571.24000	0.08188	0.00046
571.28000	0.07521	0.00038
571.32000	0.08478	0.00023
571.36000	0.07368	0.00038
571.40000	0.08177	0.00027
571.44000	0.08004	0.00040
571.48000	0.08106	0.00046
571.52000	0.08473	0.00042
571.56000	0.08478	0.00039
571.60000	0.07999	0.00034
571.64000	0.08172	0.00032
571.68000	0.08310	0.00051
571.72000	0.07735	0.00052
571.76000	0.07908	0.00050
571.80000	0.07918	0.00060
571.84000	0.07913	0.00053
571.88000	0.08391	0.00033
571.92000	0.07923	0.00036
571.96000	0.08198	0.00052
572.00000	0.07826	0.00044
572.04000	0.07831	0.00051
572.08000	0.08295	0.00047
572.12000	0.08330	0.00036
572.16000	0.08223	0.00039
572.20000	0.07933	0.00040
572.24000	0.07816	0.00032
572.28000	0.07999	0.00047
572.32000	0.08396	0.00047
572.36000	0.08015	0.00036
572.40000	0.08386	0.00038
572.44000	0.08396	0.00041
572.48000	0.08386	0.00031
572.52000	0.08091	0.00047
572.56000	0.07745	0.00047
572.60000	0.07724	0.00038
572.64000	0.07831	0.00051
572.68000	0.08600	0.00041
572.72000	0.08605	0.00034
572.76000	0.08300	0.00041
572.80000	0.07623	0.00031
572.84000	0.08081	0.00044
572.88000	0.08101	0.00034
572.92000	0.07266	0.00031
572.96000	0.07724	0.00055
573.00000	0.07714	0.00039
573.04000	0.08188	0.00046
573.08000	0.07714	0.00032
573.12000	0.08183	0.00038
573.16000	0.08020	0.00032
573.20000	0.08004	0.00040
573.24000	0.08030	0.00044
573.28000	0.08279	0.00036
573.32000	0.08284	0.00055
573.36000	0.07923	0.00048
573.40000	0.07923	0.00036
573.44000	0.08203	0.00052
573.48000	0.07811	0.00053
573.52000	0.07933	0.00046
573.56000	0.08468	0.00044
573.60000	0.08498	0.00025
573.64000	0.07623	0.00044
573.68000	0.07923	0.00048
573.72000	0.08213	0.00055
573.76000	0.08412	0.00023
573.80000	0.08325	0.00046
573.84000	0.07938	0.00047
573.88000	0.07903	0.00046
573.92000	0.07903	0.00056
573.96000	0.08855	0.00052
574.00000	0.08295	0.00057
574.04000	0.08203	0.00034
574.08000	0.07617	0.00042
574.12000	0.08412	0.00033
574.16000	0.07933	0.00023
574.20000	0.07918	0.00039
574.24000	0.08590	0.00031
574.28000	0.07826	0.00038
574.32000	0.08676	0.00036
574.36000	0.08320	0.00048
574.40000	0.08865	0.00061
574.44000	0.07923	0.00036
574.48000	0.07908	0.00044
574.52000	0.08289	0.00056
574.56000	0.08279	0.00048
574.60000	0.08300	0.00041
574.64000	0.08401	0.00041
574.68000	0.08188	0.00051
574.72000	0.08396	0.00041
574.76000	0.08396	0.00034
574.80000	0.08412	0.00033
574.84000	0.08223	0.00039
574.88000	0.08320	0.00048
574.92000	0.07979	0.00059
574.96000	0.08009	0.00031
575.00000	0.08081	0.00055
575.04000	0.08132	0.00044
575.08000	0.08111	0.00050
575.12000	0.08488	0.00050
575.16000	0.08396	0.00034
575.20000	0.08407	0.00025
575.24000	0.08203	0.00034
575.28000	0.08203	0.00041
575.32000	0.08188	0.00040
575.36000	0.08198	0.00025
575.40000	0.08086	0.00060
575.44000	0.08295	0.00025
575.48000	0.07989	0.00025
575.52000	0.08086	0.00040
575.56000	0.08004	0.00040
575.60000	0.08381	0.00042
575.64000	0.07821	0.00027
575.68000	0.07811	0.00015
575.72000	0.08595	0.00040
575.76000	0.09043	0.00058
575.80000	0.08106	0.00046
575.84000	0.08396	0.00025
575.88000	0.08315	0.00038
575.92000	0.08478	0.00032
575.96000	0.08503	0.00041
576.00000	0.08391	0.00046
576.04000	0.08376	0.00032
576.08000	0.07908	0.00038
576.12000	0.08188	0.00046
576.16000	0.08783	0.00039
576.20000	0.08549	0.00041
576.24000	0.08595	0.00040
576.28000	0.08778	0.00027
576.32000	0.09043	0.00058
576.36000	0.08962	0.00025
576.40000	0.08605	0.00041
576.44000	0.09165	0.00025
576.48000	0.08015	0.00042
576.52000	0.08391	0.00040
576.56000	0.08407	0.00025
576.60000	0.08289	0.00033
576.64000	0.08503	0.00034
576.68000	0.08875	0.00068
576.72000	0.08391	0.00033
576.76000	0.08585	0.00048
576.80000	0.08300	0.00041
576.84000	0.08320	0.00048
576.88000	0.08600	0.00034
576.92000	0.08009	0.00044
576.96000	0.08177	0.00036
577.00000	0.08203	0.00025
577.04000	0.08478	0.00056
577.08000	0.08203	0.00034
577.12000	0.08203	0.00047
577.16000	0.08096	0.00052
577.20000	0.08580	0.00051
577.24000	0.08111	0.00044
577.28000	0.08025	0.00042
577.32000	0.07841	0.00034
577.36000	0.08009	0.00031
577.40000	0.08514	0.00051
577.44000	0.08483	0.00027
577.48000	0.08203	0.00041
577.52000	0.08025	0.00048
577.56000	0.07826	0.00038
577.60000	0.08478	0.00023
577.64000	0.07796	0.00052
577.68000	0.07821	0.00036
577.72000	0.07836	0.00025
577.76000	0.07913	0.00042
577.80000	0.07989	0.00041
577.84000	0.08020	0.00046
577.88000	0.07623	0.00038
577.92000	0.07908	0.00038
577.96000	0.07923	0.00042
578.00000	0.08004	0.00051
578.04000	0.08004	0.00040
578.08000	0.07918	0.00000
578.12000	0.08198	0.00034
578.16000	0.08198	0.00047
578.20000	0.08009	0.00038
578.24000	0.08096	0.00041
578.28000	0.08289	0.00056
578.32000	0.08300	0.00057
578.36000	0.08188	0.00040
578.40000	0.08132	0.00031
578.44000	0.08015	0.00036
578.48000	0.07913	0.00062
578.52000	0.08091	0.00061
578.56000	0.07816	0.00039
578.60000	0.07801	0.00023
578.64000	0.07750	0.00040
578.68000	0.08289	0.00040
578.72000	0.08203	0.00034
578.76000	0.07709	0.00042
578.80000	0.08284	0.00038
578.84000	0.08091	0.00025
578.88000	0.07994	0.00034
578.92000	0.08025	0.00042
578.96000	0.08183	0.00031
579.00000	0.07755	0.00038
579.04000	0.07526	0.00033
579.08000	0.08284	0.00031
579.12000	0.07638	0.00041
579.16000	0.07923	0.00042
579.20000	0.07923	0.00036
579.24000	0.07526	0.00040
579.28000	0.07750	0.00033
579.32000	0.08274	0.00039
579.36000	0.07913	0.00053
579.40000	0.08401	0.00034
579.44000	0.07745	0.00041
579.48000	0.07719	0.00042
579.52000	0.07989	0.00025
579.56000	0.08193	0.00025
579.60000	0.08498	0.00052
579.64000	0.08004	0.00040
579.68000	0.08208	0.00046
579.72000	0.08193	0.00034
579.76000	0.08101	0.00034
579.80000	0.08111	0.00050
579.84000	0.08473	0.00027
579.88000	0.08274	0.00046
579.92000	0.07913	0.00042
579.96000	0.08183	0.00038
580.00000	0.07913	0.00048
580.04000	0.07999	0.00034
580.08000	0.08015	0.00042
580.12000	0.08371	0.00066
580.16000	0.08009	0.00031
580.20000	0.08671	0.00031
580.24000	0.08177	0.00027
580.28000	0.08839	0.00036
580.32000	0.08101	0.00047
580.36000	0.08091	0.00052
580.40000	0.08651	0.00034
580.44000	0.08020	0.00032
580.48000	0.07903	0.00033
580.52000	0.07903	0.00040
580.56000	0.08183	0.00031
580.60000	0.07938	0.00034
580.64000	0.08417	0.00031
580.68000	0.08381	0.00036
580.72000	0.08407	0.00041
580.76000	0.08183	0.00031
580.80000	0.08116	0.00036
580.84000	0.08193	0.00034
580.88000	0.08188	0.00023
580.92000	0.08172	0.00056
580.96000	0.08193	0.00034
581.00000	0.07984	0.00040
581.04000	0.08295	0.00034
581.08000	0.08198	0.00025
581.12000	0.08412	0.00033
581.16000	0.08295	0.00034
581.20000	0.08794	0.00038
581.24000	0.08580	0.00046
581.28000	0.08600	0.00025
581.32000	0.08376	0.00039
581.36000	0.08697	0.00033
581.40000	0.08768	0.00023
581.44000	0.08962	0.00041
581.48000	0.08585	0.00036
581.52000	0.09236	0.00042
581.56000	0.09262	0.00041
581.60000	0.08661	0.00041
581.64000	0.08773	0.00038
581.68000	0.09063	0.00034
581.72000	0.08009	0.00059
581.76000	0.08595	0.00033
581.80000	0.08417	0.00020
581.84000	0.08401	0.00034
581.88000	0.08386	0.00044
581.92000	0.08946	0.00050
581.96000	0.08768	0.00033
582.00000	0.08666	0.00033
582.04000	0.08758	0.00034
582.08000	0.07999	0.00025
582.12000	0.08651	0.00041
582.16000	0.08666	0.00033
582.20000	0.08478	0.00032
582.24000	0.07918	0.00039
582.28000	0.07933	0.00033
582.32000	0.08137	0.00040
582.36000	0.08193	0.00034
582.40000	0.08585	0.00062
582.44000	0.08559	0.00041
582.48000	0.08493	0.00040
582.52000	0.08666	0.00033
582.56000	0.08412	0.00040
582.60000	0.08091	0.00041
582.64000	0.08386	0.00031
582.68000	0.08295	0.00034
582.72000	0.08259	0.00046
582.76000	0.08376	0.00023
582.80000	0.08009	0.00038
582.84000	0.08498	0.00057
582.88000	0.07826	0.00038
582.92000	0.08111	0.00055
582.96000	0.08320	0.00042
583.00000	0.07994	0.00041
583.04000	0.08015	0.00036
583.08000	0.08610	0.00034
583.12000	0.07724	0.00055
583.16000	0.08279	0.00036
583.20000	0.07740	0.00025
583.24000	0.07999	0.00034
583.28000	0.08493	0.00040
583.32000	0.08483	0.00042
583.36000	0.08193	0.00025
583.40000	0.07816	0.00032
583.44000	0.07989	0.00025
583.48000	0.08071	0.00046
583.52000	0.08101	0.00041
583.56000	0.07719	0.00027
583.60000	0.07719	0.00036
583.64000	0.07531	0.00025
583.68000	0.07765	0.00023
583.72000	0.08020	0.00032
583.76000	0.08401	0.00034
583.80000	0.08076	0.00015
583.84000	0.07740	0.00041
583.88000	0.08773	0.00031
583.92000	0.08763	0.00025
583.96000	0.07918	0.00039
584.00000	0.07847	0.00034
584.04000	0.08188	0.00040
584.08000	0.07801	0.00033
584.12000	0.08188	0.00033
584.16000	0.08086	0.00046
584.20000	0.08101	0.00047
584.24000	0.08198	0.00025
584.28000	0.07999	0.00052
584.32000	0.08188	0.00040
584.36000	0.08310	0.00023
584.40000	0.08407	0.00034
584.44000	0.08595	0.00046
584.48000	0.07918	0.00046
584.52000	0.07913	0.00042
584.56000	0.08284	0.00044
584.60000	0.08483	0.00027
584.64000	0.07638	0.00034
584.68000	0.08289	0.00040
584.72000	0.07918	0.00039
584.76000	0.08412	0.00033
584.80000	0.08401	0.00025
584.84000	0.08401	0.00047
584.88000	0.08274	0.00046
584.92000	0.08605	0.00034
584.96000	0.07826	0.00031
585.00000	0.08106	0.00040
585.04000	0.08086	0.00033
585.08000	0.08127	0.00042
585.12000	0.07826	0.00020
585.16000	0.08020	0.00051
585.20000	0.08295	0.00069
585.24000	0.07903	0.00033
585.28000	0.08198	0.00041
585.32000	0.08009	0.00050
585.36000	0.08004	0.00046
585.40000	0.08015	0.00042
585.44000	0.08086	0.00040
585.48000	0.08386	0.00038
585.52000	0.08289	0.00046
585.56000	0.08590	0.00055
585.60000	0.08004	0.00051
585.64000	0.08086	0.00056
585.68000	0.08076	0.00036
585.72000	0.08101	0.00057
585.76000	0.08198	0.00041
585.80000	0.07821	0.00027
585.84000	0.08320	0.00027
585.88000	0.07811	0.00058
585.92000	0.08198	0.00034
585.96000	0.08208	0.00023
586.00000	0.08106	0.00040
586.04000	0.08585	0.00053
586.08000	0.08086	0.00046
586.12000	0.08376	0.00056
586.16000	0.08081	0.00031
586.20000	0.07821	0.00053
586.24000	0.07984	0.00023
586.28000	0.07979	0.00031
586.32000	0.08305	0.00041
586.36000	0.08096	0.00034
586.40000	0.08407	0.00025
586.44000	0.08035	0.00033
586.48000	0.08580	0.00051
586.52000	0.08203	0.00034
586.56000	0.08228	0.00048
586.60000	0.08575	0.00042
586.64000	0.08590	0.00038
586.68000	0.08682	0.00046
586.72000	0.08600	0.00034
586.76000	0.08396	0.00041
586.80000	0.08300	0.00047
586.84000	0.08580	0.00039
586.88000	0.08585	0.00036
586.92000	0.09058	0.00061
586.96000	0.08885	0.00039
587.00000	0.09364	0.00041
587.04000	0.08763	0.00025
587.08000	0.08687	0.00036
587.12000	0.08753	0.00041
587.16000	0.08768	0.00023
587.20000	0.09226	0.00033
587.24000	0.08381	0.00036
587.28000	0.08198	0.00025
587.32000	0.08401	0.00057
587.36000	0.09252	0.00031
587.40000	0.08982	0.00036
587.44000	0.08941	0.00058
587.48000	0.08407	0.00041
587.52000	0.08967	0.00047
587.56000	0.08305	0.00034
587.60000	0.08463	0.00023
587.64000	0.08651	0.00041
587.68000	0.07923	0.00053
587.72000	0.07897	0.00057
587.76000	0.07948	0.00025
587.80000	0.08463	0.00023
587.84000	0.08768	0.00051
587.88000	0.07903	0.00033
587.92000	0.08778	0.00062
587.96000	0.08213	0.00044
588.00000	0.08009	0.00031
588.04000	0.07999	0.00052
588.08000	0.08514	0.00040
588.12000	0.08778	0.00042
588.16000	0.08366	0.00050
588.20000	0.07918	0.00046
588.24000	0.08096	0.00047
588.28000	0.08183	0.00031
588.32000	0.08172	0.00060
588.36000	0.08183	0.00038
588.40000	0.07831	0.00040
588.44000	0.08493	0.00023
588.48000	0.08284	0.00064
588.52000	0.07999	0.00041
588.56000	0.08009	0.00050
588.60000	0.07994	0.00041
588.64000	0.07999	0.00025
588.68000	0.08183	0.00020
588.72000	0.08009	0.00031
588.76000	0.07801	0.00033
588.80000	0.08188	0.00033
588.84000	0.08289	0.00060
588.88000	0.08300	0.00052
588.92000	0.08300	0.00047
588.96000	0.08468	0.00050
589.00000	0.08004	0.00033
589.04000	0.08305	0.00041
589.08000	0.08127	0.00042
589.12000	0.08478	0.00046
589.16000	0.07836	0.00025
589.20000	0.07816	0.00023
589.24000	0.07638	0.00052
589.28000	0.08295	0.00034
589.32000	0.08305	0.00041
589.36000	0.08015	0.00027
589.40000	0.08391	0.00023
589.44000	0.07714	0.00051
589.48000	0.07999	0.00041
589.52000	0.08025	0.00042
589.56000	0.08600	0.00047
589.60000	0.07836	0.00047
589.64000	0.08575	0.00042
589.68000	0.08850	0.00040
589.72000	0.08396	0.00041
589.76000	0.08829	0.00042
589.80000	0.08855	0.00061
589.84000	0.08020	0.00051
589.88000	0.08590	0.00044
589.92000	0.08855	0.00041
589.96000	0.08391	0.00046
590.00000	0.08473	0.00042
590.04000	0.08391	0.00046
590.08000	0.08585	0.00036
590.12000	0.08570	0.00050
590.16000	0.08203	0.00041
590.20000	0.08193	0.00052
590.24000	0.08493	0.00023
590.28000	0.08473	0.00036
590.32000	0.08768	0.00023
590.36000	0.08488	0.00020
590.40000	0.08488	0.00050
590.44000	0.08396	0.00034
590.48000	0.08396	0.00041
590.52000	0.08788	0.00042
590.56000	0.08478	0.00032
590.60000	0.08697	0.00046
590.64000	0.09058	0.00047
590.68000	0.09063	0.00041
590.72000	0.07933	0.00040
590.76000	0.08111	0.00038
590.80000	0.08371	0.00053
590.84000	0.08498	0.00041
590.88000	0.08305	0.00025
590.92000	0.08758	0.00025
590.96000	0.08391	0.00023
591.00000	0.08396	0.00047
591.04000	0.08295	0.00034
591.08000	0.08386	0.00038
591.12000	0.08203	0.00025
591.16000	0.08422	0.00027
591.20000	0.08295	0.00034
591.24000	0.08289	0.00065
591.28000	0.08274	0.00039
591.32000	0.08834	0.00032
591.36000	0.08783	0.00039
591.40000	0.08300	0.00041
591.44000	0.08682	0.00056
591.48000	0.08274	0.00023
591.52000	0.08743	0.00038
591.56000	0.08778	0.00036
591.60000	0.08758	0.00025
591.64000	0.08081	0.00044
591.68000	0.08091	0.00047
591.72000	0.08020	0.00032
591.76000	0.08564	0.00046
591.80000	0.08478	0.00023
591.84000	0.08183	0.00050
591.88000	0.08183	0.00038
591.92000	0.08478	0.00039
591.96000	0.08284	0.00055
592.00000	0.08407	0.00041
592.04000	0.08300	0.00052
592.08000	0.08289	0.00033
592.12000	0.08198	0.00052
592.16000	0.08193	0.00041
592.20000	0.08193	0.00034
592.24000	0.08009	0.00038
592.28000	0.07638	0.00047
592.32000	0.08320	0.00048
592.36000	0.08213	0.00064
592.40000	0.08101	0.00041
592.44000	0.08203	0.00069
592.48000	0.08198	0.00034
592.52000	0.08289	0.00040
592.56000	0.08183	0.00031
592.60000	0.08575	0.00042
592.64000	0.08452	0.00025
592.68000	0.08778	0.00048
592.72000	0.08106	0.00051
592.76000	0.08142	0.00034
592.80000	0.07918	0.00051
592.84000	0.08025	0.00048
592.88000	0.08188	0.00023
592.92000	0.08004	0.00040
592.96000	0.08198	0.00041
593.00000	0.08198	0.00047
593.04000	0.08183	0.00020
593.08000	0.08188	0.00023
593.12000	0.08091	0.00025
593.16000	0.07933	0.00023
593.20000	0.08305	0.00034
593.24000	0.08330	0.00036
593.28000	0.08300	0.00041
593.32000	0.08193	0.00047
593.36000	0.08213	0.00038
593.40000	0.08218	0.00053
593.44000	0.08096	0.00034
593.48000	0.08305	0.00041
593.52000	0.08193	0.00052
593.56000	0.08493	0.00033
593.60000	0.08213	0.00038
593.64000	0.08183	0.00031
593.68000	0.07903	0.00023
593.72000	0.08300	0.00052
593.76000	0.07831	0.00033
593.80000	0.08605	0.00041
593.84000	0.08004	0.00033
593.88000	0.08213	0.00044
593.92000	0.08193	0.00041
593.96000	0.08401	0.00057
594.00000	0.07908	0.00055
594.04000	0.08004	0.00046
594.08000	0.08177	0.00015
594.12000	0.08498	0.00057
594.16000	0.08004	0.00033
594.20000	0.08386	0.00038
594.24000	0.08412	0.00033
594.28000	0.08682	0.00046
594.32000	0.07821	0.00048
594.36000	0.07897	0.00047
594.40000	0.08376	0.00039
594.44000	0.08106	0.00040
594.48000	0.08295	0.00034
594.52000	0.08259	0.00046
594.56000	0.08086	0.00051
594.60000	0.08193	0.00034
594.64000	0.08009	0.00050
594.68000	0.08468	0.00020
594.72000	0.08300	0.00041
594.76000	0.08030	0.00064
594.80000	0.08015	0.00036
594.84000	0.08503	0.00034
594.88000	0.08890	0.00048
594.92000	0.08218	0.00053
594.96000	0.08401	0.00034
595.00000	0.08300	0.00025
595.04000	0.08381	0.00042
595.08000	0.08198	0.00034
595.12000	0.08203	0.00052
595.16000	0.08575	0.00048
595.20000	0.08116	0.00027
595.24000	0.07903	0.00051
595.28000	0.08030	0.00031
595.32000	0.08483	0.00053
595.36000	0.08020	0.00046
595.40000	0.08009	0.00020
595.44000	0.08015	0.00036
595.48000	0.08483	0.00048
595.52000	0.08289	0.00040
595.56000	0.08203	0.00041
595.60000	0.08391	0.00033
595.64000	0.08183	0.00031
595.68000	0.08295	0.00052
595.72000	0.08300	0.00041
595.76000	0.08188	0.00040
595.80000	0.08330	0.00053
595.84000	0.08086	0.00060
595.88000	0.08305	0.00041
595.92000	0.07847	0.00047
595.96000	0.08463	0.00033
596.00000	0.08458	0.00025
596.04000	0.08473	0.00036
596.08000	0.07806	0.00031
596.12000	0.08855	0.00025
596.16000	0.08310	0.00051
596.20000	0.08300	0.00047
596.24000	0.08025	0.00053
596.28000	0.08004	0.00033
596.32000	0.08218	0.00042
596.36000	0.08646	0.00023
596.40000	0.08401	0.00034
596.44000	0.08391	0.00023
596.48000	0.07923	0.00042
596.52000	0.08488	0.00031
596.56000	0.08284	0.00050
596.60000	0.08269	0.00036
596.64000	0.08412	0.00023
596.68000	0.08447	0.00034
596.72000	0.08600	0.00034
596.76000	0.08279	0.00048
596.80000	0.08682	0.00060
596.84000	0.08743	0.00044
596.88000	0.08768	0.00040
596.92000	0.08412	0.00033
596.96000	0.08188	0.00023
597.00000	0.08208	0.00033
597.04000	0.08284	0.00050
597.08000	0.08962	0.00041
597.12000	0.08086	0.00033
597.16000	0.08060	0.00038
597.20000	0.08401	0.00025
597.24000	0.08773	0.00031
597.28000	0.08407	0.00047
597.32000	0.08483	0.00036
597.36000	0.08386	0.00038
597.40000	0.08610	0.00034
597.44000	0.08804	0.00025
597.48000	0.08783	0.00032
597.52000	0.08585	0.00036
597.56000	0.08865	0.00025
597.60000	0.08101	0.00034
597.64000	0.08682	0.00051
597.68000	0.08763	0.00041
597.72000	0.08391	0.00040
597.76000	0.08401	0.00025
597.80000	0.08015	0.00048
597.84000	0.08386	0.00031
597.88000	0.08284	0.00050
597.92000	0.08600	0.00047
597.96000	0.08468	0.00038
598.00000	0.08188	0.00023
598.04000	0.08600	0.00034
598.08000	0.08595	0.00033
598.12000	0.08468	0.00038
598.16000	0.08289	0.00046
598.20000	0.08407	0.00041
598.24000	0.08768	0.00023
598.28000	0.08768	0.00040
598.32000	0.08376	0.00039
598.36000	0.08361	0.00040
598.40000	0.08483	0.00036
598.44000	0.08778	0.00036
598.48000	0.08407	0.00034
598.52000	0.08407	0.00047
598.56000	0.08463	0.00068
598.60000	0.08473	0.00027
598.64000	0.08498	0.00073
598.68000	0.08778	0.00042
598.72000	0.08514	0.00046
598.76000	0.08305	0.00041
598.80000	0.08463	0.00051
598.84000	0.08269	0.00042
598.88000	0.07811	0.00027
598.92000	0.08401	0.00052
598.96000	0.08391	0.00040
599.00000	0.08676	0.00042
599.04000	0.08396	0.00047
599.08000	0.07903	0.00056
599.12000	0.08305	0.00057
599.16000	0.08111	0.00050
599.20000	0.08473	0.00048
599.24000	0.08478	0.00046
599.28000	0.08101	0.00047
599.32000	0.08310	0.00040
599.36000	0.08595	0.00033
599.40000	0.08198	0.00034
599.44000	0.08188	0.00023
599.48000	0.08116	0.00036
599.52000	0.08101	0.00052
599.56000	0.08875	0.00050
599.60000	0.07913	0.00048
599.64000	0.08407	0.00034
599.68000	0.07999	0.00041
599.72000	0.08488	0.00038
599.76000	0.08325	0.00046
599.80000	0.08183	0.00044
599.84000	0.08213	0.00059
599.88000	0.08198	0.00041
599.92000	0.08106	0.00046
599.96000	0.08172	0.00046
600.00000	0.07938	0.00034
600.04000	0.08096	0.00025
600.08000	0.08407	0.00047
600.12000	0.08396	0.00034
600.16000	0.08015	0.00042
600.20000	0.08121	0.00039
600.24000	0.08300	0.00025
600.28000	0.08157	0.00033
600.32000	0.07989	0.00041
600.36000	0.08310	0.00033
600.40000	0.08295	0.00025
600.44000	0.08295	0.00052
600.48000	0.08289	0.00056
600.52000	0.08320	0.00027
600.56000	0.08325	0.00039
