Raman-Spectrum _CDCl3 _pol90as01.dat
27/09/2021
10:38:18
_CDCl3
_pol90as Temp: NON
X in nm	Y Signal 	Error Signal				
625.04000	0.08956	0.00041
625.08000	0.09898	0.00048
625.12000	0.09975	0.00041
625.16000	0.09313	0.00047
625.20000	0.09033	0.00042
625.24000	0.09593	0.00027
625.28000	0.09623	0.00025
625.32000	0.09613	0.00023
625.36000	0.09231	0.00031
625.40000	0.09226	0.00051
625.44000	0.09710	0.00055
625.48000	0.09700	0.00039
625.52000	0.09328	0.00033
625.56000	0.09313	0.00047
625.60000	0.09552	0.00015
625.64000	0.09145	0.00036
625.68000	0.09048	0.00050
625.72000	0.09405	0.00031
625.76000	0.09430	0.00023
625.80000	0.09048	0.00059
625.84000	0.09033	0.00036
625.88000	0.09914	0.00044
625.92000	0.09048	0.00031
625.96000	0.09634	0.00040
626.00000	0.09155	0.00046
626.04000	0.09618	0.00047
626.08000	0.09598	0.00032
626.12000	0.09038	0.00032
626.16000	0.09058	0.00025
626.20000	0.09038	0.00064
626.24000	0.09328	0.00056
626.28000	0.09211	0.00041
626.32000	0.09420	0.00025
626.36000	0.09318	0.00057
626.40000	0.09333	0.00038
626.44000	0.09328	0.00046
626.48000	0.09043	0.00048
626.52000	0.09715	0.00040
626.56000	0.09308	0.00056
626.60000	0.09623	0.00047
626.64000	0.09242	0.00060
626.68000	0.09242	0.00046
626.72000	0.09242	0.00046
626.76000	0.09206	0.00033
626.80000	0.09639	0.00055
626.84000	0.09527	0.00034
626.88000	0.09786	0.00023
626.92000	0.09517	0.00061
626.96000	0.09496	0.00039
627.00000	0.09425	0.00034
627.04000	0.09410	0.00040
627.08000	0.09323	0.00034
627.12000	0.09333	0.00038
627.16000	0.09247	0.00036
627.20000	0.09598	0.00039
627.24000	0.09598	0.00046
627.28000	0.10189	0.00047
627.32000	0.10204	0.00027
627.36000	0.09903	0.00051
627.40000	0.09231	0.00050
627.44000	0.09781	0.00025
627.48000	0.09527	0.00041
627.52000	0.10387	0.00041
627.56000	0.09817	0.00051
627.60000	0.09929	0.00047
627.64000	0.09924	0.00057
627.68000	0.09985	0.00034
627.72000	0.09786	0.00033
627.76000	0.09812	0.00020
627.80000	0.10637	0.00034
627.84000	0.09786	0.00060
627.88000	0.10469	0.00027
627.92000	0.10474	0.00020
627.96000	0.09715	0.00040
628.00000	0.10738	0.00052
628.04000	0.10280	0.00047
628.08000	0.10382	0.00041
628.12000	0.10917	0.00042
628.16000	0.10346	0.00056
628.20000	0.10367	0.00042
628.24000	0.11054	0.00041
628.28000	0.10937	0.00046
628.32000	0.10652	0.00046
628.36000	0.10550	0.00040
628.40000	0.11400	0.00052
628.44000	0.11085	0.00038
628.48000	0.11670	0.00040
628.52000	0.11685	0.00046
628.56000	0.11095	0.00041
628.60000	0.10861	0.00031
628.64000	0.11772	0.00033
628.68000	0.11034	0.00050
628.72000	0.11329	0.00032
628.76000	0.10382	0.00041
628.80000	0.10377	0.00056
628.84000	0.10382	0.00025
628.88000	0.11120	0.00036
628.92000	0.11049	0.00025
628.96000	0.10922	0.00060
629.00000	0.10565	0.00032
629.04000	0.10912	0.00031
629.08000	0.10112	0.00027
629.12000	0.10077	0.00047
629.16000	0.10092	0.00068
629.20000	0.09674	0.00041
629.24000	0.10372	0.00038
629.28000	0.09888	0.00046
629.32000	0.10077	0.00034
629.36000	0.10183	0.00047
629.40000	0.10178	0.00034
629.44000	0.09629	0.00041
629.48000	0.08916	0.00052
629.52000	0.09338	0.00042
629.56000	0.09797	0.00027
629.60000	0.09547	0.00051
629.64000	0.09440	0.00027
629.68000	0.09415	0.00025
629.72000	0.09140	0.00032
629.76000	0.09435	0.00031
629.80000	0.08860	0.00034
629.84000	0.09542	0.00048
629.88000	0.09150	0.00038
629.92000	0.09517	0.00034
629.96000	0.08951	0.00046
630.00000	0.08931	0.00036
630.04000	0.09023	0.00040
630.08000	0.08956	0.00041
630.12000	0.08666	0.00033
630.16000	0.08946	0.00059
630.20000	0.08778	0.00027
630.24000	0.08692	0.00050
630.28000	0.08656	0.00047
630.32000	0.08865	0.00034
630.36000	0.09231	0.00031
630.40000	0.09012	0.00047
630.44000	0.09038	0.00032
630.48000	0.08860	0.00069
630.52000	0.08839	0.00042
630.56000	0.08844	0.00064
630.60000	0.08951	0.00046
630.64000	0.08855	0.00041
630.68000	0.09043	0.00027
630.72000	0.08687	0.00053
630.76000	0.08875	0.00031
630.80000	0.08860	0.00061
630.84000	0.09216	0.00034
630.88000	0.09262	0.00047
630.92000	0.09415	0.00034
630.96000	0.09028	0.00031
631.00000	0.08478	0.00051
631.04000	0.08641	0.00044
631.08000	0.09328	0.00046
631.12000	0.09354	0.00031
631.16000	0.09338	0.00053
631.20000	0.09053	0.00051
631.24000	0.08865	0.00052
631.28000	0.09807	0.00027
631.32000	0.10290	0.00034
631.36000	0.10764	0.00042
631.40000	0.11309	0.00041
631.44000	0.11604	0.00041
631.48000	0.11614	0.00034
631.52000	0.12429	0.00034
631.56000	0.12826	0.00061
631.60000	0.13004	0.00048
631.64000	0.13111	0.00046
631.68000	0.13768	0.00048
631.72000	0.13600	0.00041
631.76000	0.13610	0.00031
631.80000	0.14888	0.00036
631.84000	0.14720	0.00034
631.88000	0.15361	0.00044
631.92000	0.15662	0.00036
631.96000	0.15759	0.00023
632.00000	0.16222	0.00048
632.04000	0.16191	0.00041
632.08000	0.16904	0.00025
632.12000	0.17123	0.00020
632.16000	0.17245	0.00050
632.20000	0.17149	0.00023
632.24000	0.16711	0.00033
632.28000	0.17271	0.00060
632.32000	0.17337	0.00032
632.36000	0.17352	0.00046
632.40000	0.16721	0.00053
632.44000	0.17133	0.00023
632.48000	0.17164	0.00047
632.52000	0.16690	0.00056
632.56000	0.16588	0.00033
632.60000	0.16410	0.00038
632.64000	0.16405	0.00051
632.68000	0.15591	0.00046
632.72000	0.15545	0.00038
632.76000	0.15107	0.00031
632.80000	0.15081	0.00040
632.84000	0.13931	0.00042
632.88000	0.14516	0.00025
632.92000	0.14511	0.00041
632.96000	0.13585	0.00040
633.00000	0.13834	0.00055
633.04000	0.13213	0.00051
633.08000	0.12057	0.00056
633.12000	0.13116	0.00027
633.16000	0.12907	0.00023
633.20000	0.12261	0.00056
633.24000	0.12251	0.00058
633.28000	0.12159	0.00051
633.32000	0.11212	0.00023
633.36000	0.11691	0.00036
633.40000	0.10652	0.00040
633.44000	0.10570	0.00042
633.48000	0.10830	0.00020
633.52000	0.10830	0.00050
633.56000	0.10362	0.00046
633.60000	0.09985	0.00025
633.64000	0.09348	0.00053
633.68000	0.09221	0.00047
633.72000	0.08773	0.00031
633.76000	0.08646	0.00033
633.80000	0.09226	0.00033
633.84000	0.09236	0.00042
633.88000	0.08870	0.00040
633.92000	0.08676	0.00053
633.96000	0.08941	0.00042
634.00000	0.09496	0.00056
634.04000	0.08763	0.00034
634.08000	0.08829	0.00036
634.12000	0.08834	0.00039
634.16000	0.08768	0.00046
634.20000	0.08844	0.00044
634.24000	0.08931	0.00042
634.28000	0.08213	0.00064
634.32000	0.08407	0.00057
634.36000	0.08086	0.00033
634.40000	0.08096	0.00061
634.44000	0.08967	0.00061
634.48000	0.08682	0.00051
634.52000	0.08855	0.00052
634.56000	0.09298	0.00053
634.60000	0.08748	0.00033
634.64000	0.09206	0.00033
634.68000	0.08585	0.00027
634.72000	0.08580	0.00039
634.76000	0.08951	0.00065
634.80000	0.08661	0.00041
634.84000	0.08743	0.00038
634.88000	0.09440	0.00048
634.92000	0.08844	0.00038
634.96000	0.08860	0.00047
635.00000	0.08870	0.00040
635.04000	0.08763	0.00034
635.08000	0.08676	0.00036
635.12000	0.08794	0.00038
635.16000	0.08839	0.00048
635.20000	0.08676	0.00048
635.24000	0.09155	0.00046
635.28000	0.09140	0.00046
635.32000	0.08580	0.00046
635.36000	0.08844	0.00064
635.40000	0.08870	0.00046
635.44000	0.09348	0.00042
635.48000	0.09043	0.00053
635.52000	0.08788	0.00027
635.56000	0.08682	0.00039
635.60000	0.08692	0.00038
635.64000	0.08376	0.00039
635.68000	0.08778	0.00048
635.72000	0.09023	0.00046
635.76000	0.09124	0.00051
635.80000	0.08753	0.00034
635.84000	0.09043	0.00053
635.88000	0.09038	0.00032
635.92000	0.09053	0.00065
635.96000	0.08386	0.00044
636.00000	0.08941	0.00042
636.04000	0.08778	0.00062
636.08000	0.09145	0.00027
636.12000	0.09236	0.00058
636.16000	0.09445	0.00032
636.20000	0.09420	0.00034
636.24000	0.08758	0.00034
636.28000	0.09216	0.00025
636.32000	0.08682	0.00051
636.36000	0.08483	0.00036
636.40000	0.08712	0.00034
636.44000	0.08956	0.00034
636.48000	0.08951	0.00033
636.52000	0.08778	0.00015
636.56000	0.08962	0.00025
636.60000	0.08177	0.00027
636.64000	0.08855	0.00025
636.68000	0.08732	0.00032
636.72000	0.09028	0.00038
636.76000	0.09038	0.00060
636.80000	0.09343	0.00046
636.84000	0.08656	0.00047
636.88000	0.09338	0.00058
636.92000	0.08478	0.00039
636.96000	0.08880	0.00048
637.00000	0.08844	0.00038
637.04000	0.08773	0.00044
637.08000	0.08778	0.00036
637.12000	0.08468	0.00044
637.16000	0.08773	0.00038
637.20000	0.08763	0.00025
637.24000	0.08391	0.00033
637.28000	0.09343	0.00039
637.32000	0.08575	0.00048
637.36000	0.08585	0.00036
637.40000	0.08834	0.00039
637.44000	0.09140	0.00032
637.48000	0.09206	0.00033
637.52000	0.09313	0.00025
637.56000	0.08962	0.00041
637.60000	0.08865	0.00047
637.64000	0.08839	0.00036
637.68000	0.08967	0.00041
637.72000	0.09318	0.00041
637.76000	0.08977	0.00031
637.80000	0.08778	0.00027
637.84000	0.08671	0.00038
637.88000	0.08839	0.00042
637.92000	0.08875	0.00059
637.96000	0.08824	0.00038
638.00000	0.08829	0.00027
638.04000	0.08651	0.00025
638.08000	0.08778	0.00036
638.12000	0.08682	0.00060
638.16000	0.09242	0.00046
638.20000	0.09348	0.00036
638.24000	0.09323	0.00052
638.28000	0.09023	0.00056
638.32000	0.09715	0.00033
638.36000	0.09053	0.00023
638.40000	0.09354	0.00044
638.44000	0.08773	0.00031
638.48000	0.08855	0.00041
638.52000	0.09155	0.00033
638.56000	0.09165	0.00025
638.60000	0.09048	0.00055
638.64000	0.08687	0.00042
638.68000	0.08951	0.00033
638.72000	0.09236	0.00036
638.76000	0.09797	0.00036
638.80000	0.08860	0.00041
638.84000	0.08829	0.00036
638.88000	0.09048	0.00050
638.92000	0.09206	0.00051
638.96000	0.08753	0.00057
639.00000	0.09058	0.00034
639.04000	0.09802	0.00032
639.08000	0.09221	0.00034
639.12000	0.09226	0.00040
639.16000	0.09028	0.00031
639.20000	0.09629	0.00025
639.24000	0.09802	0.00051
639.28000	0.09776	0.00034
639.32000	0.09608	0.00031
639.36000	0.09491	0.00042
639.40000	0.09817	0.00046
639.44000	0.09807	0.00027
639.48000	0.09522	0.00025
639.52000	0.10209	0.00051
639.56000	0.09914	0.00044
639.60000	0.09354	0.00038
639.64000	0.09170	0.00034
639.68000	0.09868	0.00040
639.72000	0.09919	0.00046
639.76000	0.09318	0.00034
639.80000	0.09868	0.00065
639.84000	0.09685	0.00040
639.88000	0.10092	0.00033
639.92000	0.09710	0.00044
639.96000	0.09786	0.00046
640.00000	0.09786	0.00046
640.04000	0.10352	0.00020
640.08000	0.10458	0.00015
640.12000	0.10387	0.00041
640.16000	0.09450	0.00027
640.20000	0.09710	0.00044
640.24000	0.10357	0.00036
640.28000	0.10087	0.00052
640.32000	0.10071	0.00023
640.36000	0.10061	0.00042
640.40000	0.10000	0.00042
640.44000	0.10000	0.00036
640.48000	0.09909	0.00062
640.52000	0.10280	0.00041
640.56000	0.10005	0.00032
640.60000	0.10010	0.00042
640.64000	0.09547	0.00051
640.68000	0.09873	0.00057
640.72000	0.09720	0.00041
640.76000	0.09542	0.00042
640.80000	0.09786	0.00051
640.84000	0.09435	0.00044
640.88000	0.09786	0.00060
640.92000	0.09797	0.00036
640.96000	0.09415	0.00034
641.00000	0.09618	0.00025
641.04000	0.09995	0.00050
641.08000	0.09517	0.00041
641.12000	0.10194	0.00040
641.16000	0.09629	0.00034
641.20000	0.09593	0.00027
641.24000	0.09522	0.00025
641.28000	0.09435	0.00055
641.32000	0.10092	0.00046
641.36000	0.09221	0.00041
641.40000	0.09822	0.00041
641.44000	0.09802	0.00046
641.48000	0.09797	0.00058
641.52000	0.10545	0.00057
641.56000	0.09914	0.00055
641.60000	0.09822	0.00025
641.64000	0.09914	0.00038
641.68000	0.10280	0.00052
641.72000	0.10097	0.00038
641.76000	0.10280	0.00041
641.80000	0.10265	0.00036
641.84000	0.09685	0.00033
641.88000	0.10545	0.00047
641.92000	0.10387	0.00061
641.96000	0.10642	0.00034
642.00000	0.10749	0.00047
642.04000	0.10733	0.00040
642.08000	0.10764	0.00058
642.12000	0.11874	0.00046
642.16000	0.10947	0.00041
642.20000	0.11976	0.00040
642.24000	0.12154	0.00050
642.28000	0.12072	0.00034
642.32000	0.12836	0.00041
642.36000	0.12800	0.00048
642.40000	0.13590	0.00047
642.44000	0.13753	0.00025
642.48000	0.14430	0.00036
642.52000	0.16146	0.00034
642.56000	0.15570	0.00056
642.60000	0.16588	0.00056
642.64000	0.17337	0.00046
642.68000	0.17362	0.00034
642.72000	0.17917	0.00025
642.76000	0.19317	0.00058
642.80000	0.19989	0.00042
642.84000	0.21008	0.00036
642.88000	0.22530	0.00056
642.92000	0.24332	0.00047
642.96000	0.24302	0.00031
643.00000	0.23767	0.00046
643.04000	0.25621	0.00033
643.08000	0.26002	0.00044
643.12000	0.25269	0.00031
643.16000	0.25636	0.00051
643.20000	0.25570	0.00040
643.24000	0.26863	0.00042
643.28000	0.26878	0.00052
643.32000	0.26603	0.00056
643.36000	0.25926	0.00040
643.40000	0.26008	0.00040
643.44000	0.24903	0.00034
643.48000	0.25386	0.00048
643.52000	0.24419	0.00042
643.56000	0.24450	0.00023
643.60000	0.22943	0.00053
643.64000	0.24317	0.00036
643.68000	0.22815	0.00034
643.72000	0.22713	0.00034
643.76000	0.21863	0.00036
643.80000	0.20539	0.00036
643.84000	0.20560	0.00056
643.88000	0.20432	0.00038
643.92000	0.19241	0.00041
643.96000	0.18762	0.00051
644.00000	0.17143	0.00031
644.04000	0.15743	0.00046
644.08000	0.15458	0.00042
644.12000	0.14705	0.00040
644.16000	0.14705	0.00040
644.20000	0.14236	0.00042
644.24000	0.12729	0.00047
644.28000	0.13198	0.00040
644.32000	0.11889	0.00032
644.36000	0.11421	0.00031
644.40000	0.11324	0.00036
644.44000	0.11319	0.00055
644.48000	0.11039	0.00056
644.52000	0.10382	0.00052
644.56000	0.10733	0.00046
644.60000	0.10825	0.00027
644.64000	0.09791	0.00031
644.68000	0.10545	0.00061
644.72000	0.10560	0.00053
644.76000	0.10647	0.00025
644.80000	0.10947	0.00034
644.84000	0.09807	0.00027
644.88000	0.10850	0.00047
644.92000	0.10189	0.00034
644.96000	0.10331	0.00041
645.00000	0.10183	0.00025
645.04000	0.10163	0.00058
645.08000	0.09878	0.00034
645.12000	0.10290	0.00041
645.16000	0.09160	0.00047
645.20000	0.09781	0.00034
645.24000	0.09990	0.00065
645.28000	0.10295	0.00033
645.32000	0.10295	0.00033
645.36000	0.09506	0.00055
645.40000	0.09786	0.00046
645.44000	0.10092	0.00033
645.48000	0.09328	0.00040
645.52000	0.10021	0.00023
645.56000	0.09333	0.00044
645.60000	0.09140	0.00039
645.64000	0.09165	0.00034
645.68000	0.09868	0.00046
645.72000	0.09725	0.00025
645.76000	0.09527	0.00041
645.80000	0.10357	0.00048
645.84000	0.09216	0.00047
645.88000	0.09802	0.00046
645.92000	0.09802	0.00039
645.96000	0.10087	0.00034
646.00000	0.09420	0.00034
646.04000	0.10377	0.00033
646.08000	0.09700	0.00051
646.12000	0.10178	0.00047
646.16000	0.10367	0.00048
646.20000	0.10372	0.00044
646.24000	0.10077	0.00034
646.28000	0.10194	0.00040
646.32000	0.10280	0.00034
646.36000	0.10209	0.00039
646.40000	0.11125	0.00039
646.44000	0.10632	0.00046
646.48000	0.11217	0.00031
646.52000	0.11207	0.00025
646.56000	0.11589	0.00070
646.60000	0.11869	0.00034
646.64000	0.12459	0.00044
646.68000	0.13101	0.00050
646.72000	0.13870	0.00027
646.76000	0.14236	0.00036
646.80000	0.14241	0.00031
646.84000	0.14532	0.00042
646.88000	0.16792	0.00051
646.92000	0.17444	0.00036
646.96000	0.18773	0.00020
647.00000	0.19618	0.00038
647.04000	0.21130	0.00047
647.08000	0.21079	0.00025
647.12000	0.22153	0.00047
647.16000	0.24017	0.00050
647.20000	0.25992	0.00039
647.24000	0.27688	0.00051
647.28000	0.29582	0.00034
647.32000	0.31572	0.00025
647.36000	0.33263	0.00031
647.40000	0.33242	0.00025
647.44000	0.33339	0.00023
647.48000	0.34887	0.00046
647.52000	0.33568	0.00050
647.56000	0.34872	0.00052
647.60000	0.34714	0.00046
647.64000	0.34867	0.00056
647.68000	0.34887	0.00046
647.72000	0.33283	0.00038
647.76000	0.34938	0.00046
647.80000	0.32805	0.00038
647.84000	0.32265	0.00044
647.88000	0.31903	0.00042
647.92000	0.30340	0.00034
647.96000	0.30753	0.00047
648.00000	0.30717	0.00031
648.04000	0.28726	0.00023
648.08000	0.27515	0.00048
648.12000	0.26109	0.00023
648.16000	0.23839	0.00040
648.20000	0.23004	0.00033
648.24000	0.20356	0.00040
648.28000	0.20371	0.00034
648.32000	0.18584	0.00034
648.36000	0.17714	0.00047
648.40000	0.16298	0.00047
648.44000	0.14241	0.00055
648.48000	0.14430	0.00048
648.52000	0.12912	0.00080
648.56000	0.12907	0.00023
648.60000	0.11416	0.00033
648.64000	0.11492	0.00031
648.68000	0.11232	0.00053
648.72000	0.10479	0.00023
648.76000	0.10458	0.00027
648.80000	0.09883	0.00047
648.84000	0.09832	0.00041
648.88000	0.09817	0.00023
648.92000	0.10448	0.00033
648.96000	0.10000	0.00027
649.00000	0.10295	0.00033
649.04000	0.09715	0.00046
649.08000	0.09975	0.00047
649.12000	0.09812	0.00064
649.16000	0.09807	0.00027
649.20000	0.09542	0.00036
649.24000	0.08839	0.00036
649.28000	0.09730	0.00034
649.32000	0.09527	0.00047
649.36000	0.08956	0.00052
649.40000	0.09700	0.00056
649.44000	0.09735	0.00046
649.48000	0.09715	0.00033
649.52000	0.09720	0.00025
649.56000	0.09435	0.00031
649.60000	0.09710	0.00031
649.64000	0.08956	0.00034
649.68000	0.09236	0.00048
649.72000	0.09175	0.00040
649.76000	0.09145	0.00036
649.80000	0.09522	0.00041
649.84000	0.09242	0.00039
649.88000	0.09527	0.00052
649.92000	0.09807	0.00027
649.96000	0.09761	0.00050
650.00000	0.09613	0.00051
650.04000	0.09639	0.00044
650.08000	0.09425	0.00041
650.12000	0.09511	0.00033
650.16000	0.09033	0.00048
650.20000	0.09328	0.00056
650.24000	0.09511	0.00040
650.28000	0.09898	0.00058
650.32000	0.09812	0.00044
650.36000	0.09817	0.00040
650.40000	0.09348	0.00042
650.44000	0.09328	0.00040
650.48000	0.09700	0.00046
650.52000	0.08956	0.00041
650.56000	0.09827	0.00052
650.60000	0.09629	0.00041
650.64000	0.09629	0.00041
650.68000	0.09226	0.00040
650.72000	0.09023	0.00051
650.76000	0.09685	0.00023
650.80000	0.09501	0.00062
650.84000	0.09048	0.00059
650.88000	0.09425	0.00041
650.92000	0.09415	0.00041
650.96000	0.09364	0.00052
651.00000	0.09557	0.00044
651.04000	0.09440	0.00027
651.08000	0.08951	0.00051
651.12000	0.09145	0.00048
651.16000	0.09236	0.00042
651.20000	0.09191	0.00039
651.24000	0.09226	0.00046
651.28000	0.09313	0.00041
651.32000	0.09623	0.00034
651.36000	0.09211	0.00041
651.40000	0.09445	0.00032
651.44000	0.09608	0.00050
651.48000	0.09175	0.00040
651.52000	0.09150	0.00038
651.56000	0.09455	0.00031
651.60000	0.09043	0.00042
651.64000	0.09231	0.00020
651.68000	0.08839	0.00048
651.72000	0.09399	0.00042
651.76000	0.09145	0.00042
651.80000	0.09140	0.00032
651.84000	0.08768	0.00023
651.88000	0.09399	0.00053
651.92000	0.09623	0.00025
651.96000	0.09140	0.00046
652.00000	0.09481	0.00046
652.04000	0.09058	0.00057
652.08000	0.09160	0.00025
652.12000	0.09160	0.00047
652.16000	0.09084	0.00036
652.20000	0.08911	0.00034
652.24000	0.09155	0.00051
652.28000	0.08564	0.00040
652.32000	0.08921	0.00046
652.36000	0.08829	0.00062
652.40000	0.08855	0.00047
652.44000	0.09430	0.00046
652.48000	0.08956	0.00034
652.52000	0.08676	0.00058
652.56000	0.09068	0.00041
652.60000	0.09328	0.00023
652.64000	0.09226	0.00033
652.68000	0.09130	0.00050
652.72000	0.09155	0.00046
652.76000	0.09323	0.00041
652.80000	0.08962	0.00047
652.84000	0.09405	0.00044
652.88000	0.09491	0.00027
652.92000	0.09425	0.00047
652.96000	0.09527	0.00034
653.00000	0.09522	0.00047
653.04000	0.09333	0.00044
653.08000	0.09231	0.00050
653.12000	0.08783	0.00023
653.16000	0.09725	0.00025
653.20000	0.09221	0.00025
653.24000	0.08941	0.00053
653.28000	0.08967	0.00025
653.32000	0.09160	0.00061
653.36000	0.08844	0.00059
653.40000	0.09328	0.00046
653.44000	0.09323	0.00034
653.48000	0.08829	0.00042
653.52000	0.09221	0.00047
653.56000	0.08972	0.00023
653.60000	0.08972	0.00040
653.64000	0.09343	0.00046
653.68000	0.09033	0.00027
653.72000	0.08956	0.00025
653.76000	0.08844	0.00059
653.80000	0.09211	0.00025
653.84000	0.09618	0.00052
653.88000	0.09629	0.00047
653.92000	0.09155	0.00051
653.96000	0.09308	0.00046
654.00000	0.09048	0.00055
654.04000	0.09919	0.00051
654.08000	0.09695	0.00036
654.12000	0.09710	0.00031
654.16000	0.09720	0.00041
654.20000	0.09323	0.00025
654.24000	0.08676	0.00036
654.28000	0.09898	0.00042
654.32000	0.08951	0.00040
654.36000	0.09608	0.00038
654.40000	0.08956	0.00034
654.44000	0.09252	0.00044
654.48000	0.09236	0.00042
654.52000	0.09130	0.00044
654.56000	0.08778	0.00048
654.60000	0.08773	0.00044
654.64000	0.09262	0.00041
654.68000	0.09542	0.00036
654.72000	0.09333	0.00055
654.76000	0.09318	0.00047
654.80000	0.09308	0.00056
654.84000	0.09226	0.00033
654.88000	0.09598	0.00032
654.92000	0.09160	0.00041
654.96000	0.09211	0.00047
655.00000	0.09522	0.00047
655.04000	0.08682	0.00032
655.08000	0.08682	0.00039
655.12000	0.08967	0.00052
655.16000	0.09155	0.00040
655.20000	0.09343	0.00051
655.24000	0.09216	0.00069
655.28000	0.08778	0.00036
655.32000	0.09440	0.00058
655.36000	0.09399	0.00042
655.40000	0.08834	0.00051
655.44000	0.09226	0.00040
655.48000	0.09145	0.00036
655.52000	0.08972	0.00040
655.56000	0.09048	0.00038
