Waveleght	Intensity	Error
625.43	0.10392	0.00034
625.48	0.09506	0.00055
625.52	0.10173	0.0006
625.56	0.10183	0.00052
625.6	0.10525	0.00038
625.64	0.1	0.00036
625.68	0.10453	0.00031
625.72	0.10443	0.00041
625.76	0.09802	0.0006
625.8	0.1084	0.00047
625.84	0.0942	0.00041
625.88	0.10469	0.00027
625.92	0.10189	0.00047
625.95	0.10464	0.00032
626.0	0.10469	0.00036
626.04	0.10637	0.00025
626.07	0.10362	0.00051
626.12	0.10265	0.00042
626.16	0.0999	0.0004
626.19	0.10275	0.0006
626.24	0.10458	0.00027
626.28	0.10479	0.00051
626.31	0.1001	0.00036
626.36	0.10372	0.00031
626.4	0.1084	0.00034
626.43	0.09903	0.00046
626.48	0.10183	0.00047
626.52	0.11492	0.00044
626.56	0.10632	0.00033
626.6	0.10632	0.00051
626.64	0.10642	0.00025
626.68	0.10346	0.00051
626.72	0.10377	0.00033
626.76	0.1025	0.0005
626.8	0.10285	0.00041
626.84	0.10535	0.00047
626.88	0.10525	0.00044
626.92	0.10183	0.00065
626.95	0.10372	0.00031
627.0	0.10392	0.00034
627.04	0.10071	0.00033
627.07	0.10922	0.00039
627.12	0.1056	0.00062
627.16	0.10173	0.00056
627.19	0.10194	0.0006
627.24	0.10896	0.00025
627.28	0.10738	0.00047
627.31	0.1056	0.00036
627.36	0.10912	0.00055
627.4	0.10616	0.00032
627.43	0.10209	0.00046
627.48	0.10189	0.00041
627.52	0.10774	0.00036
627.56	0.1055	0.00033
627.6	0.10947	0.00025
627.64	0.10178	0.00047
627.68	0.10458	0.00036
627.72	0.10825	0.00015
627.76	0.10835	0.00033
627.8	0.10738	0.00034
627.84	0.10453	0.0005
627.88	0.10657	0.00044
627.92	0.10856	0.0004
627.95	0.11136	0.00044
628.0	0.10372	0.00038
628.04	0.10744	0.00041
628.07	0.10749	0.00047
628.12	0.10906	0.00065
628.16	0.1082	0.0
628.19	0.11115	0.00038
628.24	0.11487	0.00036
628.28	0.11085	0.00038
628.31	0.11115	0.00038
628.36	0.11105	0.00047
628.4	0.11777	0.00038
628.43	0.11024	0.00039
628.48	0.10942	0.00052
628.52	0.1113	0.00036
628.56	0.11691	0.00048
628.6	0.11273	0.00027
628.64	0.11319	0.00038
628.68	0.11008	0.0004
628.72	0.12256	0.00038
628.76	0.11222	0.00027
628.8	0.11293	0.00046
628.84	0.12098	0.00036
628.88	0.12139	0.00036
628.92	0.11207	0.00025
628.95	0.11197	0.00025
629.0	0.11696	0.00031
629.04	0.11685	0.00039
629.07	0.11889	0.00046
629.12	0.1195	0.00055
629.16	0.12154	0.0002
629.19	0.10932	0.0005
629.24	0.10937	0.00033
629.28	0.11864	0.00034
629.31	0.11757	0.00034
629.36	0.11558	0.00047
629.4	0.11039	0.0004
629.43	0.11497	0.00046
629.48	0.11309	0.00041
629.52	0.11309	0.00047
629.56	0.11324	0.00042
629.6	0.11125	0.00032
629.64	0.11675	0.00038
629.68	0.10932	0.00044
629.72	0.10927	0.00053
629.76	0.1109	0.00046
629.8	0.10744	0.00041
629.84	0.10759	0.00044
629.88	0.10632	0.0004
629.92	0.10906	0.00046
629.95	0.11095	0.00052
630.0	0.10576	0.00038
630.04	0.10657	0.00038
630.07	0.10372	0.00031
630.12	0.10377	0.00046
630.16	0.10245	0.0004
630.19	0.1055	0.00056
630.24	0.1028	0.00025
630.28	0.0999	0.00033
630.31	0.10647	0.00041
630.36	0.1	0.00036
630.4	0.09898	0.00048
630.43	0.09909	0.00036
630.48	0.09802	0.00039
630.52	0.10178	0.00025
630.56	0.09995	0.00044
630.6	0.10061	0.00042
630.64	0.09791	0.00031
630.68	0.10616	0.00032
630.72	0.10647	0.00041
630.76	0.10377	0.0004
630.8	0.09883	0.00047
630.84	0.10082	0.00025
630.88	0.09985	0.00025
630.92	0.10474	0.00055
630.95	0.10097	0.0005
631.0	0.1	0.00042
631.04	0.09975	0.00057
631.07	0.10632	0.0004
631.12	0.10005	0.00039
631.16	0.09506	0.00031
631.19	0.1026	0.00032
631.24	0.10178	0.00047
631.28	0.11018	0.00042
631.31	0.11003	0.00047
631.36	0.09939	0.00046
631.4	0.10194	0.00046
631.43	0.1	0.00036
631.48	0.10555	0.00031
631.52	0.09812	0.0002
631.56	0.10647	0.00041
631.6	0.10626	0.0002
631.64	0.09338	0.00027
631.68	0.10759	0.0005
631.72	0.10662	0.00036
631.76	0.1025	0.00031
631.8	0.10728	0.00044
631.84	0.09888	0.00033
631.88	0.10545	0.00047
631.92	0.10555	0.00031
631.95	0.10759	0.0005
632.0	0.11309	0.00047
632.04	0.10652	0.00033
632.07	0.10733	0.0004
632.12	0.10952	0.00047
632.16	0.11029	0.00036
632.19	0.11029	0.00036
632.24	0.1085	0.00047
632.28	0.11487	0.00027
632.31	0.11691	0.00036
632.36	0.11288	0.00044
632.4	0.11309	0.00025
632.43	0.12154	0.00031
632.48	0.12133	0.00038
632.52	0.12072	0.00041
632.56	0.1164	0.00042
632.6	0.11879	0.00038
632.64	0.12322	0.00052
632.68	0.11614	0.00041
632.72	0.12057	0.00046
632.76	0.11288	0.00038
632.8	0.11304	0.00052
632.84	0.12286	0.00031
632.88	0.12072	0.00034
632.92	0.12083	0.00044
632.95	0.13004	0.00036
633.0	0.11981	0.00038
633.04	0.12149	0.00036
633.07	0.12169	0.00041
633.12	0.12352	0.00027
633.16	0.11894	0.00042
633.19	0.12062	0.00047
633.24	0.1167	0.00033
633.28	0.11772	0.00046
633.31	0.12149	0.00027
633.36	0.12057	0.00033
633.4	0.12072	0.00041
633.43	0.11767	0.00047
633.48	0.11095	0.00041
633.52	0.1113	0.00062
633.56	0.11339	0.00044
633.6	0.11416	0.0006
633.64	0.11436	0.00027
633.68	0.11395	0.00051
633.72	0.10657	0.00044
633.76	0.11217	0.00038
633.8	0.1054	0.00041
633.84	0.10443	0.00025
633.88	0.10464	0.00032
633.92	0.10443	0.00047
633.95	0.10484	0.00041
634.0	0.10443	0.00025
634.04	0.1025	0.00031
634.07	0.10637	0.00025
634.12	0.1055	0.00051
634.16	0.09898	0.00042
634.19	0.09807	0.00015
634.24	0.10275	0.00033
634.28	0.1026	0.00046
634.31	0.1025	0.00031
634.36	0.09985	0.00052
634.4	0.10428	0.0004
634.43	0.10382	0.00034
634.48	0.09903	0.00056
634.52	0.10265	0.00048
634.56	0.1025	0.00031
634.6	0.10183	0.00041
634.64	0.09705	0.00036
634.68	0.09909	0.00042
634.72	0.09898	0.00058
634.76	0.10484	0.00041
634.8	0.10092	0.0004
634.84	0.10087	0.00052
634.88	0.10005	0.00023
634.92	0.09496	0.00046
634.95	0.10474	0.0005
635.0	0.10255	0.00048
635.04	0.09898	0.00042
635.07	0.10082	0.00041
635.12	0.09995	0.00031
635.16	0.0998	0.00025
635.19	0.10927	0.00058
635.24	0.10382	0.00047
635.28	0.10458	0.00042
635.31	0.10097	0.00064
635.36	0.10555	0.0005
635.4	0.0999	0.00046
635.43	0.09995	0.00038
635.48	0.09685	0.00051
635.52	0.10545	0.00061
635.56	0.10005	0.00032
635.6	0.1029	0.00041
635.64	0.10194	0.00051
635.68	0.09888	0.00023
635.72	0.10178	0.0008
635.76	0.10178	0.00047
635.8	0.09898	0.00027
635.84	0.10275	0.0004
635.88	0.09405	0.00044
635.92	0.10652	0.00033
635.95	0.09674	0.00052
636.0	0.0972	0.00047
636.04	0.0971	0.0005
636.07	0.10301	0.00038
636.12	0.09985	0.00041
636.16	0.10382	0.00052
636.19	0.10077	0.00041
636.24	0.1027	0.00031
636.28	0.09629	0.00047
636.31	0.09583	0.00033
636.36	0.1026	0.00046
636.4	0.09995	0.0005
636.43	0.1027	0.00044
636.48	0.10443	0.00041
636.52	0.1026	0.00039
636.56	0.1026	0.00039
636.6	0.10209	0.00046
636.64	0.10224	0.0004
636.68	0.10453	0.00044
636.72	0.1	0.00042
636.76	0.09791	0.0002
636.8	0.09705	0.00042
636.84	0.10372	0.00031
636.88	0.10153	0.00036
636.92	0.10183	0.00034
636.95	0.1083	0.0002
637.0	0.10362	0.00039
637.04	0.09812	0.00044
637.07	0.10545	0.00041
637.12	0.09634	0.00023
637.16	0.10133	0.00057
637.19	0.10021	0.00023
637.24	0.09995	0.00044
637.28	0.09705	0.00058
637.31	0.10545	0.00047
637.36	0.09985	0.00041
637.4	0.10082	0.00025
637.43	0.09863	0.00038
637.48	0.10362	0.00051
637.52	0.10382	0.00034
637.56	0.09995	0.00044
637.6	0.097	0.00039
637.64	0.10071	0.00046
637.68	0.10005	0.00032
637.72	0.09685	0.00046
637.76	0.10352	0.00038
637.8	0.10357	0.00053
637.84	0.10199	0.00044
637.88	0.10071	0.00051
637.92	0.10545	0.00047
637.95	0.10158	0.00046
638.0	0.09802	0.00032
638.04	0.09868	0.0006
638.07	0.09781	0.00034
638.12	0.09781	0.00052
638.16	0.10005	0.00032
638.19	0.09435	0.00038
638.24	0.10357	0.00042
638.28	0.10397	0.00033
638.31	0.0999	0.00051
638.36	0.10479	0.0006
638.4	0.10464	0.00039
638.43	0.1054	0.00047
638.48	0.1028	0.00047
638.52	0.10932	0.0005
638.56	0.0999	0.00023
638.6	0.09598	0.00056
638.64	0.0998	0.00034
638.68	0.1	0.00036
638.72	0.10458	0.00036
638.76	0.10087	0.00047
638.8	0.09898	0.00042
638.84	0.10474	0.0005
638.88	0.1026	0.00039
638.92	0.10372	0.00031
638.95	0.10367	0.00036
639.0	0.10362	0.00023
639.04	0.10392	0.00025
639.07	0.10173	0.00056
639.12	0.0997	0.00033
639.16	0.10652	0.00046
639.19	0.09985	0.00025
639.24	0.10367	0.00036
639.28	0.10362	0.00046
639.31	0.1027	0.00038
639.36	0.10173	0.00051
639.4	0.10372	0.00038
639.43	0.09812	0.00044
639.48	0.09873	0.00034
639.52	0.10199	0.00031
639.56	0.10474	0.00038
639.6	0.10438	0.00034
639.64	0.10387	0.00025
639.68	0.10453	0.0002
639.72	0.10448	0.00033
639.76	0.10448	0.00033
639.8	0.10667	0.00039
639.84	0.1028	0.00041
639.88	0.10301	0.00031
639.92	0.10173	0.00051
639.95	0.10275	0.00046
640.0	0.10362	0.00051
640.04	0.09985	0.00047
640.07	0.10082	0.00025
640.12	0.10484	0.00034
640.16	0.10453	0.00031
640.19	0.09995	0.0005
640.24	0.10285	0.00041
640.28	0.10565	0.00046
640.31	0.09995	0.00031
640.36	0.10484	0.00034
640.4	0.10581	0.0004
640.43	0.10484	0.00034
640.48	0.10458	0.00027
640.52	0.10357	0.00027
640.56	0.09883	0.00052
640.6	0.10565	0.00039
640.64	0.10825	0.00042
640.68	0.11105	0.00052
640.72	0.10448	0.00023
640.76	0.10479	0.00023
640.8	0.09812	0.00044
640.84	0.10723	0.00042
640.88	0.097	0.00046
640.92	0.10265	0.00027
640.95	0.10295	0.00033
641.0	0.10357	0.00042
641.04	0.10387	0.00041
641.07	0.10341	0.00047
641.12	0.09914	0.00055
641.16	0.10632	0.00056
641.19	0.09817	0.00051
641.24	0.10856	0.00051
641.28	0.10474	0.00038
641.31	0.10835	0.00033
641.36	0.10835	0.00033
641.4	0.10367	0.00036
641.43	0.10662	0.00048
641.48	0.1055	0.00046
641.52	0.1029	0.00061
641.56	0.10443	0.00041
641.6	0.10835	0.00033
641.64	0.10845	0.00047
641.68	0.10637	0.00025
641.72	0.10637	0.00025
641.76	0.10576	0.00038
641.8	0.1084	0.00025
641.84	0.10535	0.00034
641.88	0.10555	0.0005
641.92	0.10382	0.00034
641.95	0.10362	0.00064
642.0	0.10102	0.00027
642.04	0.10657	0.00038
642.07	0.10744	0.00052
642.12	0.1083	0.00055
642.16	0.11512	0.00061
642.19	0.10275	0.00033
642.24	0.1028	0.00041
642.28	0.11013	0.00044
642.31	0.11227	0.00039
642.36	0.11614	0.00034
642.4	0.10637	0.00034
642.43	0.11298	0.00047
642.48	0.12154	0.00038
642.52	0.12174	0.00057
642.56	0.11497	0.00046
642.6	0.11981	0.0005
642.64	0.11385	0.00036
642.68	0.12627	0.00047
642.72	0.1331	0.00027
642.76	0.13294	0.00041
642.8	0.13473	0.00048
642.84	0.13483	0.0004
642.88	0.13951	0.00034
642.92	0.14328	0.00048
642.95	0.14812	0.00041
643.0	0.14618	0.00041
643.04	0.16217	0.00039
643.07	0.16609	0.00046
643.12	0.16583	0.00031
643.16	0.17062	0.00047
643.19	0.18218	0.00033
643.24	0.18549	0.00031
643.28	0.19883	0.00056
643.31	0.19918	0.00033
643.36	0.18961	0.00036
643.4	0.20845	0.00027
643.43	0.20824	0.00025
643.48	0.21491	0.00047
643.52	0.22031	0.00031
643.56	0.21761	0.00036
643.6	0.225	0.00034
643.64	0.21853	0.00046
643.68	0.22337	0.00059
643.72	0.22301	0.00047
643.76	0.22046	0.00041
643.8	0.22433	0.00048
643.84	0.22067	0.00036
643.88	0.22622	0.0005
643.92	0.2279	0.00036
643.95	0.21033	0.00034
644.0	0.21023	0.00025
644.04	0.2196	0.00038
644.07	0.20916	0.0004
644.12	0.20718	0.00034
644.16	0.19124	0.00036
644.19	0.19241	0.00052
644.24	0.17332	0.00027
644.28	0.17118	0.0004
644.31	0.17154	0.00034
644.36	0.15733	0.00025
644.4	0.16314	0.00058
644.43	0.14705	0.00033
644.48	0.15092	0.00042
644.52	0.13834	0.0005
644.56	0.13773	0.00046
644.6	0.13742	0.00041
644.64	0.13182	0.00041
644.68	0.12912	0.00036
644.72	0.12337	0.00031
644.76	0.12154	0.00038
644.8	0.11492	0.00055
644.84	0.11976	0.00046
644.88	0.11991	0.00039
644.92	0.10474	0.00044
644.95	0.11426	0.00036
645.0	0.11314	0.0004
645.04	0.10825	0.00042
645.07	0.11125	0.00039
645.12	0.10255	0.00048
645.16	0.10922	0.00046
645.19	0.10912	0.00068
645.24	0.10637	0.00034
645.28	0.1082	0.00051
645.31	0.10922	0.00032
645.36	0.10845	0.00025
645.4	0.10835	0.0004
645.43	0.1056	0.00048
645.48	0.1056	0.00042
645.52	0.11024	0.0006
645.56	0.10367	0.00042
645.6	0.11197	0.00057
645.64	0.10046	0.00055
645.68	0.11207	0.00025
645.72	0.10749	0.00047
645.76	0.10194	0.00033
645.8	0.10163	0.00048
645.84	0.1082	0.00032
645.88	0.11405	0.00034
645.92	0.1084	0.00047
645.95	0.10555	0.0005
646.0	0.10937	0.0004
646.04	0.11309	0.00047
646.07	0.11314	0.00033
646.12	0.10565	0.00039
646.16	0.10453	0.00044
646.19	0.10906	0.00056
646.24	0.10642	0.00034
646.28	0.1	0.00048
646.31	0.10362	0.00032
646.36	0.10336	0.00047
646.4	0.10815	0.00053
646.43	0.10942	0.00057
646.48	0.1027	0.0002
646.52	0.10922	0.00039
646.56	0.10733	0.00033
646.6	0.10922	0.00056
646.64	0.10464	0.00039
646.68	0.10443	0.00025
646.72	0.10835	0.00033
646.76	0.10448	0.00033
646.8	0.1113	0.00036
646.84	0.10458	0.00036
646.88	0.10754	0.0004
646.92	0.10382	0.00061
646.95	0.10372	0.00059
647.0	0.10937	0.0004
647.04	0.11029	0.00048
647.07	0.10448	0.00033
647.12	0.10927	0.00048
647.16	0.11426	0.00015
647.19	0.11614	0.00025
647.24	0.11589	0.00036
647.28	0.11971	0.00047
647.31	0.12067	0.00034
647.36	0.11293	0.0004
647.4	0.12047	0.00058
647.43	0.11976	0.00023
647.48	0.12347	0.00051
647.52	0.12643	0.00031
647.56	0.12622	0.00025
647.6	0.13238	0.00041
647.64	0.12923	0.00033
647.68	0.13366	0.00032
647.72	0.13936	0.0005
647.76	0.13569	0.00046
647.8	0.14226	0.00042
647.84	0.14216	0.00046
647.88	0.14414	0.00047
647.92	0.13951	0.00041
647.95	0.14048	0.00041
648.0	0.14048	0.00025
648.04	0.14216	0.00088
648.07	0.14908	0.00033
648.12	0.15097	0.00032
648.16	0.15112	0.0004
648.19	0.14109	0.00025
648.24	0.14496	0.00031
648.28	0.14333	0.00032
648.31	0.13366	0.00039
648.36	0.14613	0.00025
648.4	0.14043	0.00046
648.43	0.14053	0.00025
648.48	0.13763	0.0002
648.52	0.13585	0.0004
648.56	0.13753	0.00041
648.6	0.12933	0.00047
648.64	0.13467	0.00032
648.68	0.12846	0.00038
648.72	0.12826	0.00041
648.76	0.12627	0.00047
648.8	0.12342	0.00053
648.84	0.12149	0.00048
648.88	0.11411	0.00061
648.92	0.11701	0.00023
648.95	0.11421	0.00038
649.0	0.1083	0.00038
649.04	0.1085	0.00047
649.07	0.10749	0.00034
649.12	0.10484	0.00034
649.16	0.10947	0.00034
649.19	0.10901	0.00041
649.24	0.1055	0.0004
649.28	0.10657	0.00038
649.31	0.10642	0.00047
649.36	0.10657	0.0005
649.4	0.1083	0.0005
649.43	0.10301	0.00038
649.48	0.10927	0.00036
649.52	0.11044	0.00025
649.56	0.10382	0.00041
649.6	0.10759	0.00044
649.64	0.10744	0.00047
649.68	0.10744	0.00047
649.72	0.1054	0.00034
649.76	0.10148	0.00044
649.8	0.10458	0.00048
649.84	0.1056	0.00042
649.88	0.10621	0.00027
649.92	0.10662	0.00036
649.95	0.10912	0.00044
650.0	0.10469	0.00036
650.04	0.10637	0.00034
650.07	0.10652	0.0004
650.12	0.10845	0.00047
650.16	0.10733	0.00056
650.19	0.10744	0.00061
650.24	0.10637	0.00025
650.28	0.10367	0.00048
650.31	0.10092	0.0004
650.36	0.10565	0.00051
650.4	0.10372	0.0005
650.43	0.09786	0.00033
650.48	0.0969	0.0002
650.52	0.09715	0.00056
650.56	0.09725	0.00041
650.6	0.10474	0.00031
650.64	0.10173	0.00051
650.68	0.10392	0.00034
650.72	0.09802	0.00032
650.76	0.1027	0.00059
650.8	0.10255	0.00036
650.84	0.09705	0.00036
650.88	0.10891	0.00041
650.92	0.10377	0.00046
650.95	0.10448	0.0004
651.0	0.10367	0.00053
651.04	0.10077	0.00041
651.07	0.10092	0.00033
651.12	0.10295	0.00056
651.16	0.1027	0.0002
651.19	0.10285	0.00034
651.24	0.10087	0.00034
651.28	0.10458	0.00027
651.31	0.10744	0.00025
651.36	0.09893	0.00031
651.4	0.09893	0.00044
651.43	0.10458	0.00042
651.48	0.09893	0.00059
651.52	0.10102	0.00015
651.56	0.10367	0.00053
651.6	0.1052	0.00036
651.64	0.10565	0.00046
651.68	0.1057	0.00048
651.72	0.10071	0.00046
651.76	0.09903	0.00046
651.8	0.10438	0.00034
651.84	0.09903	0.00056
651.88	0.09786	0.00046
651.92	0.10163	0.00042
651.95	0.09893	0.0005
652.0	0.09878	0.00047
652.04	0.09618	0.00041
652.07	0.10265	0.00042
652.12	0.09995	0.00044
652.16	0.09766	0.00072
652.19	0.10469	0.00036
652.24	0.09995	0.00038
652.28	0.1001	0.00027
652.31	0.10163	0.00048
652.36	0.10927	0.00027
652.4	0.10168	0.00031
652.43	0.10632	0.00033
652.48	0.09791	0.00044
652.52	0.1	0.00036
652.56	0.09985	0.00047
652.6	0.10255	0.00036
652.64	0.10448	0.0004
652.68	0.10728	0.0005
652.72	0.10077	0.00034
652.76	0.10082	0.00025
652.8	0.09786	0.00033
652.84	0.1053	0.0004
652.88	0.10576	0.0005
652.92	0.10158	0.00039
652.95	0.09878	0.00041
653.0	0.1057	0.00062
653.04	0.1028	0.00047
653.07	0.10183	0.00052
653.12	0.1028	0.00052
653.16	0.10295	0.00051
653.19	0.10275	0.00033
653.24	0.09797	0.00036
653.28	0.10754	0.00065
653.31	0.10932	0.00031
653.36	0.10718	0.00051
653.4	0.10453	0.00031
653.43	0.10474	0.00031
653.48	0.1028	0.00041
653.52	0.0999	0.0004
653.56	0.10204	0.00048
653.6	0.1084	0.00047
653.64	0.10362	0.00023
653.68	0.10464	0.00032
653.72	0.10448	0.00033
653.76	0.10458	0.00027
653.8	0.10214	0.00042
653.84	0.10199	0.00038
653.88	0.09786	0.00051
653.92	0.10189	0.00041
653.95	0.10189	0.00065
654.0	0.09781	0.00034
654.04	0.09797	0.00015
654.07	0.10713	0.00053
654.12	0.10769	0.00032
654.16	0.10097	0.0005
654.19	0.09511	0.00056
654.24	0.10733	0.00046
654.28	0.10092	0.00046
654.31	0.09914	0.00044
654.36	0.09883	0.00034
654.4	0.1026	0.00032
654.43	0.10626	0.0005
654.48	0.10662	0.00053
654.52	0.09735	0.00051
654.56	0.0998	0.00047
654.6	0.10102	0.00053
654.64	0.10087	0.00025
654.68	0.10367	0.00036
654.72	0.09985	0.00057
654.76	0.10759	0.00044
654.8	0.09995	0.00038
654.84	0.10474	0.00031
654.88	0.1027	0.00031
654.92	0.10275	0.00046
654.95	0.10183	0.00047
655.0	0.09415	0.00025
655.04	0.09679	0.00025
655.07	0.10005	0.00039
655.12	0.09909	0.00042
655.16	0.10026	0.00041
655.19	0.09914	0.0005
655.24	0.09893	0.00031
655.28	0.10194	0.0004
655.31	0.10087	0.00041
655.36	0.10667	0.00032
655.4	0.10372	0.00044
655.43	0.10255	0.00015
655.48	0.09791	0.00031
655.52	0.09802	0.00023
655.56	0.10662	0.00062
655.6	0.10382	0.00034
655.64	0.10443	0.00034
655.68	0.10835	0.00023
655.72	0.09608	0.00038
655.76	0.10576	0.00044
655.8	0.09898	0.00036
655.84	0.09888	0.00051
655.88	0.10377	0.00033
655.92	0.10295	0.00046
655.95	0.10362	0.00039
656.0	0.0999	0.00046
656.04	0.10632	0.00051
656.07	0.10183	0.00041
656.12	0.10168	0.00038
656.16	0.0999	0.00046
656.19	0.10352	0.00068
656.24	0.09873	0.00057
656.28	0.0969	0.00044
656.31	0.10194	0.00051
656.36	0.09817	0.0004
656.4	0.09807	0.00048
656.43	0.09506	0.00044
656.48	0.10183	0.00041
656.52	0.09995	0.0002
656.56	0.1055	0.00033
656.6	0.10362	0.00023
656.64	0.10239	0.00034
656.68	0.10377	0.00023
656.72	0.10382	0.00047
656.76	0.10168	0.0005
656.8	0.10178	0.00052
656.84	0.0998	0.00041
656.88	0.09832	0.00034
656.92	0.10464	0.00032
656.95	0.0999	0.0004
657.0	0.09985	0.00034
657.04	0.10433	0.00041
657.07	0.10448	0.00046
657.12	0.10621	0.00042
657.16	0.10469	0.00027
657.19	0.10107	0.00056
657.24	0.10301	0.00038
657.28	0.10285	0.00034
657.31	0.10168	0.00031
657.36	0.10183	0.00047
657.4	0.10015	0.00038
657.43	0.10026	0.00034
657.48	0.10015	0.0002
657.52	0.10173	0.00056
657.56	0.10367	0.00058
657.6	0.10382	0.00057
657.64	0.1029	0.00025
657.68	0.10718	0.00056
657.72	0.10387	0.00041
657.76	0.1054	0.00041
657.8	0.10066	0.0002
657.84	0.10377	0.00033
657.88	0.10362	0.00046
657.92	0.10092	0.0004
657.95	0.1056	0.00042
658.0	0.10087	0.00034
658.04	0.0998	0.00041
658.07	0.10077	0.00047
658.12	0.10458	0.00048
658.16	0.10458	0.00027
658.19	0.10474	0.00044
658.24	0.10917	0.00036
658.28	0.10163	0.00042
658.31	0.09807	0.00036
658.36	0.10835	0.0004
658.4	0.1001	0.00042
658.43	0.1083	0.0005
658.48	0.1083	0.00038
658.52	0.10545	0.00047
658.56	0.09893	0.00044
658.6	0.1	0.00027
658.64	0.10443	0.00034
658.68	0.09898	0.00036
658.72	0.10097	0.00031
658.76	0.10097	0.00068
658.8	0.10479	0.00033
658.84	0.10082	0.00025
658.88	0.10178	0.00047
658.92	0.10087	0.00034
658.95	0.10845	0.00041
659.0	0.10173	0.0004
659.04	0.10514	0.00032
659.07	0.10565	0.0006
659.12	0.10082	0.00041
659.16	0.10367	0.00027
659.19	0.09893	0.00038
659.24	0.10357	0.00042
659.28	0.10285	0.00034
659.31	0.10744	0.00047
659.36	0.10749	0.00041
659.4	0.09919	0.00051
659.43	0.09883	0.00041
659.48	0.1056	0.00048
659.52	0.09919	0.00051
659.56	0.10754	0.00051
659.6	0.09893	0.00044
659.64	0.09898	0.00042
659.68	0.10082	0.00025
659.72	0.10469	0.00042
659.76	0.1082	0.0006
659.8	0.10723	0.00053
659.84	0.10194	0.00065
659.88	0.1028	0.00047
659.92	0.10453	0.00031
659.95	0.10464	0.00046
660.0	0.1057	0.00042
660.04	0.1083	0.00031
660.07	0.11207	0.00034
660.12	0.10637	0.00034
660.16	0.10657	0.00038
660.19	0.10927	0.00062
660.24	0.10912	0.00059
660.28	0.1055	0.00056
660.31	0.10097	0.00044
660.36	0.11304	0.00025
660.4	0.11192	0.00033
660.43	0.10937	0.00046
660.48	0.11782	0.00042
660.52	0.11013	0.0002
660.56	0.11044	0.00052
660.6	0.11507	0.00041
660.64	0.12169	0.00034
660.68	0.12251	0.00027
660.72	0.12225	0.00034
660.76	0.12734	0.00047
660.8	0.1252	0.00057
