Raman-Spectrum _CHCl3 _aspol001.dat
27/09/2021
14:25:54
_CHCl3
_aspol0 Temp: NON
X in nm	Y Signal 	Error Signal				
625.04000	0.10392	0.00034
625.08000	0.09506	0.00055
625.12000	0.10173	0.00060
625.16000	0.10183	0.00052
625.20000	0.10525	0.00038
625.24000	0.10000	0.00036
625.28000	0.10453	0.00031
625.32000	0.10443	0.00041
625.36000	0.09802	0.00060
625.40000	0.10840	0.00047
625.44000	0.09420	0.00041
625.48000	0.10469	0.00027
625.52000	0.10189	0.00047
625.56000	0.10464	0.00032
625.60000	0.10469	0.00036
625.64000	0.10637	0.00025
625.68000	0.10362	0.00051
625.72000	0.10265	0.00042
625.76000	0.09990	0.00040
625.80000	0.10275	0.00060
625.84000	0.10458	0.00027
625.88000	0.10479	0.00051
625.92000	0.10010	0.00036
625.96000	0.10372	0.00031
626.00000	0.10840	0.00034
626.04000	0.09903	0.00046
626.08000	0.10183	0.00047
626.12000	0.11492	0.00044
626.16000	0.10632	0.00033
626.20000	0.10632	0.00051
626.24000	0.10642	0.00025
626.28000	0.10346	0.00051
626.32000	0.10377	0.00033
626.36000	0.10250	0.00050
626.40000	0.10285	0.00041
626.44000	0.10535	0.00047
626.48000	0.10525	0.00044
626.52000	0.10183	0.00065
626.56000	0.10372	0.00031
626.60000	0.10392	0.00034
626.64000	0.10071	0.00033
626.68000	0.10922	0.00039
626.72000	0.10560	0.00062
626.76000	0.10173	0.00056
626.80000	0.10194	0.00060
626.84000	0.10896	0.00025
626.88000	0.10738	0.00047
626.92000	0.10560	0.00036
626.96000	0.10912	0.00055
627.00000	0.10616	0.00032
627.04000	0.10209	0.00046
627.08000	0.10189	0.00041
627.12000	0.10774	0.00036
627.16000	0.10550	0.00033
627.20000	0.10947	0.00025
627.24000	0.10178	0.00047
627.28000	0.10458	0.00036
627.32000	0.10825	0.00015
627.36000	0.10835	0.00033
627.40000	0.10738	0.00034
627.44000	0.10453	0.00050
627.48000	0.10657	0.00044
627.52000	0.10856	0.00040
627.56000	0.11136	0.00044
627.60000	0.10372	0.00038
627.64000	0.10744	0.00041
627.68000	0.10749	0.00047
627.72000	0.10906	0.00065
627.76000	0.10820	0.00000
627.80000	0.11115	0.00038
627.84000	0.11487	0.00036
627.88000	0.11085	0.00038
627.92000	0.11115	0.00038
627.96000	0.11105	0.00047
628.00000	0.11777	0.00038
628.04000	0.11024	0.00039
628.08000	0.10942	0.00052
628.12000	0.11130	0.00036
628.16000	0.11691	0.00048
628.20000	0.11273	0.00027
628.24000	0.11319	0.00038
628.28000	0.11008	0.00040
628.32000	0.12256	0.00038
628.36000	0.11222	0.00027
628.40000	0.11293	0.00046
628.44000	0.12098	0.00036
628.48000	0.12139	0.00036
628.52000	0.11207	0.00025
628.56000	0.11197	0.00025
628.60000	0.11696	0.00031
628.64000	0.11685	0.00039
628.68000	0.11889	0.00046
628.72000	0.11950	0.00055
628.76000	0.12154	0.00020
628.80000	0.10932	0.00050
628.84000	0.10937	0.00033
628.88000	0.11864	0.00034
628.92000	0.11757	0.00034
628.96000	0.11558	0.00047
629.00000	0.11039	0.00040
629.04000	0.11497	0.00046
629.08000	0.11309	0.00041
629.12000	0.11309	0.00047
629.16000	0.11324	0.00042
629.20000	0.11125	0.00032
629.24000	0.11675	0.00038
629.28000	0.10932	0.00044
629.32000	0.10927	0.00053
629.36000	0.11090	0.00046
629.40000	0.10744	0.00041
629.44000	0.10759	0.00044
629.48000	0.10632	0.00040
629.52000	0.10906	0.00046
629.56000	0.11095	0.00052
629.60000	0.10576	0.00038
629.64000	0.10657	0.00038
629.68000	0.10372	0.00031
629.72000	0.10377	0.00046
629.76000	0.10245	0.00040
629.80000	0.10550	0.00056
629.84000	0.10280	0.00025
629.88000	0.09990	0.00033
629.92000	0.10647	0.00041
629.96000	0.10000	0.00036
630.00000	0.09898	0.00048
630.04000	0.09909	0.00036
630.08000	0.09802	0.00039
630.12000	0.10178	0.00025
630.16000	0.09995	0.00044
630.20000	0.10061	0.00042
630.24000	0.09791	0.00031
630.28000	0.10616	0.00032
630.32000	0.10647	0.00041
630.36000	0.10377	0.00040
630.40000	0.09883	0.00047
630.44000	0.10082	0.00025
630.48000	0.09985	0.00025
630.52000	0.10474	0.00055
630.56000	0.10097	0.00050
630.60000	0.10000	0.00042
630.64000	0.09975	0.00057
630.68000	0.10632	0.00040
630.72000	0.10005	0.00039
630.76000	0.09506	0.00031
630.80000	0.10260	0.00032
630.84000	0.10178	0.00047
630.88000	0.11018	0.00042
630.92000	0.11003	0.00047
630.96000	0.09939	0.00046
631.00000	0.10194	0.00046
631.04000	0.10000	0.00036
631.08000	0.10555	0.00031
631.12000	0.09812	0.00020
631.16000	0.10647	0.00041
631.20000	0.10626	0.00020
631.24000	0.09338	0.00027
631.28000	0.10759	0.00050
631.32000	0.10662	0.00036
631.36000	0.10250	0.00031
631.40000	0.10728	0.00044
631.44000	0.09888	0.00033
631.48000	0.10545	0.00047
631.52000	0.10555	0.00031
631.56000	0.10759	0.00050
631.60000	0.11309	0.00047
631.64000	0.10652	0.00033
631.68000	0.10733	0.00040
631.72000	0.10952	0.00047
631.76000	0.11029	0.00036
631.80000	0.11029	0.00036
631.84000	0.10850	0.00047
631.88000	0.11487	0.00027
631.92000	0.11691	0.00036
631.96000	0.11288	0.00044
632.00000	0.11309	0.00025
632.04000	0.12154	0.00031
632.08000	0.12133	0.00038
632.12000	0.12072	0.00041
632.16000	0.11640	0.00042
632.20000	0.11879	0.00038
632.24000	0.12322	0.00052
632.28000	0.11614	0.00041
632.32000	0.12057	0.00046
632.36000	0.11288	0.00038
632.40000	0.11304	0.00052
632.44000	0.12286	0.00031
632.48000	0.12072	0.00034
632.52000	0.12083	0.00044
632.56000	0.13004	0.00036
632.60000	0.11981	0.00038
632.64000	0.12149	0.00036
632.68000	0.12169	0.00041
632.72000	0.12352	0.00027
632.76000	0.11894	0.00042
632.80000	0.12062	0.00047
632.84000	0.11670	0.00033
632.88000	0.11772	0.00046
632.92000	0.12149	0.00027
632.96000	0.12057	0.00033
633.00000	0.12072	0.00041
633.04000	0.11767	0.00047
633.08000	0.11095	0.00041
633.12000	0.11130	0.00062
633.16000	0.11339	0.00044
633.20000	0.11416	0.00060
633.24000	0.11436	0.00027
633.28000	0.11395	0.00051
633.32000	0.10657	0.00044
633.36000	0.11217	0.00038
633.40000	0.10540	0.00041
633.44000	0.10443	0.00025
633.48000	0.10464	0.00032
633.52000	0.10443	0.00047
633.56000	0.10484	0.00041
633.60000	0.10443	0.00025
633.64000	0.10250	0.00031
633.68000	0.10637	0.00025
633.72000	0.10550	0.00051
633.76000	0.09898	0.00042
633.80000	0.09807	0.00015
633.84000	0.10275	0.00033
633.88000	0.10260	0.00046
633.92000	0.10250	0.00031
633.96000	0.09985	0.00052
634.00000	0.10428	0.00040
634.04000	0.10382	0.00034
634.08000	0.09903	0.00056
634.12000	0.10265	0.00048
634.16000	0.10250	0.00031
634.20000	0.10183	0.00041
634.24000	0.09705	0.00036
634.28000	0.09909	0.00042
634.32000	0.09898	0.00058
634.36000	0.10484	0.00041
634.40000	0.10092	0.00040
634.44000	0.10087	0.00052
634.48000	0.10005	0.00023
634.52000	0.09496	0.00046
634.56000	0.10474	0.00050
634.60000	0.10255	0.00048
634.64000	0.09898	0.00042
634.68000	0.10082	0.00041
634.72000	0.09995	0.00031
634.76000	0.09980	0.00025
634.80000	0.10927	0.00058
634.84000	0.10382	0.00047
634.88000	0.10458	0.00042
634.92000	0.10097	0.00064
634.96000	0.10555	0.00050
635.00000	0.09990	0.00046
635.04000	0.09995	0.00038
635.08000	0.09685	0.00051
635.12000	0.10545	0.00061
635.16000	0.10005	0.00032
635.20000	0.10290	0.00041
635.24000	0.10194	0.00051
635.28000	0.09888	0.00023
635.32000	0.10178	0.00080
635.36000	0.10178	0.00047
635.40000	0.09898	0.00027
635.44000	0.10275	0.00040
635.48000	0.09405	0.00044
635.52000	0.10652	0.00033
635.56000	0.09674	0.00052
635.60000	0.09720	0.00047
635.64000	0.09710	0.00050
635.68000	0.10301	0.00038
635.72000	0.09985	0.00041
635.76000	0.10382	0.00052
635.80000	0.10077	0.00041
635.84000	0.10270	0.00031
635.88000	0.09629	0.00047
635.92000	0.09583	0.00033
635.96000	0.10260	0.00046
636.00000	0.09995	0.00050
636.04000	0.10270	0.00044
636.08000	0.10443	0.00041
636.12000	0.10260	0.00039
636.16000	0.10260	0.00039
636.20000	0.10209	0.00046
636.24000	0.10224	0.00040
636.28000	0.10453	0.00044
636.32000	0.10000	0.00042
636.36000	0.09791	0.00020
636.40000	0.09705	0.00042
636.44000	0.10372	0.00031
636.48000	0.10153	0.00036
636.52000	0.10183	0.00034
636.56000	0.10830	0.00020
636.60000	0.10362	0.00039
636.64000	0.09812	0.00044
636.68000	0.10545	0.00041
636.72000	0.09634	0.00023
636.76000	0.10133	0.00057
636.80000	0.10021	0.00023
636.84000	0.09995	0.00044
636.88000	0.09705	0.00058
636.92000	0.10545	0.00047
636.96000	0.09985	0.00041
637.00000	0.10082	0.00025
637.04000	0.09863	0.00038
637.08000	0.10362	0.00051
637.12000	0.10382	0.00034
637.16000	0.09995	0.00044
637.20000	0.09700	0.00039
637.24000	0.10071	0.00046
637.28000	0.10005	0.00032
637.32000	0.09685	0.00046
637.36000	0.10352	0.00038
637.40000	0.10357	0.00053
637.44000	0.10199	0.00044
637.48000	0.10071	0.00051
637.52000	0.10545	0.00047
637.56000	0.10158	0.00046
637.60000	0.09802	0.00032
637.64000	0.09868	0.00060
637.68000	0.09781	0.00034
637.72000	0.09781	0.00052
637.76000	0.10005	0.00032
637.80000	0.09435	0.00038
637.84000	0.10357	0.00042
637.88000	0.10397	0.00033
637.92000	0.09990	0.00051
637.96000	0.10479	0.00060
638.00000	0.10464	0.00039
638.04000	0.10540	0.00047
638.08000	0.10280	0.00047
638.12000	0.10932	0.00050
638.16000	0.09990	0.00023
638.20000	0.09598	0.00056
638.24000	0.09980	0.00034
638.28000	0.10000	0.00036
638.32000	0.10458	0.00036
638.36000	0.10087	0.00047
638.40000	0.09898	0.00042
638.44000	0.10474	0.00050
638.48000	0.10260	0.00039
638.52000	0.10372	0.00031
638.56000	0.10367	0.00036
638.60000	0.10362	0.00023
638.64000	0.10392	0.00025
638.68000	0.10173	0.00056
638.72000	0.09970	0.00033
638.76000	0.10652	0.00046
638.80000	0.09985	0.00025
638.84000	0.10367	0.00036
638.88000	0.10362	0.00046
638.92000	0.10270	0.00038
638.96000	0.10173	0.00051
639.00000	0.10372	0.00038
639.04000	0.09812	0.00044
639.08000	0.09873	0.00034
639.12000	0.10199	0.00031
639.16000	0.10474	0.00038
639.20000	0.10438	0.00034
639.24000	0.10387	0.00025
639.28000	0.10453	0.00020
639.32000	0.10448	0.00033
639.36000	0.10448	0.00033
639.40000	0.10667	0.00039
639.44000	0.10280	0.00041
639.48000	0.10301	0.00031
639.52000	0.10173	0.00051
639.56000	0.10275	0.00046
639.60000	0.10362	0.00051
639.64000	0.09985	0.00047
639.68000	0.10082	0.00025
639.72000	0.10484	0.00034
639.76000	0.10453	0.00031
639.80000	0.09995	0.00050
639.84000	0.10285	0.00041
639.88000	0.10565	0.00046
639.92000	0.09995	0.00031
639.96000	0.10484	0.00034
640.00000	0.10581	0.00040
640.04000	0.10484	0.00034
640.08000	0.10458	0.00027
640.12000	0.10357	0.00027
640.16000	0.09883	0.00052
640.20000	0.10565	0.00039
640.24000	0.10825	0.00042
640.28000	0.11105	0.00052
640.32000	0.10448	0.00023
640.36000	0.10479	0.00023
640.40000	0.09812	0.00044
640.44000	0.10723	0.00042
640.48000	0.09700	0.00046
640.52000	0.10265	0.00027
640.56000	0.10295	0.00033
640.60000	0.10357	0.00042
640.64000	0.10387	0.00041
640.68000	0.10341	0.00047
640.72000	0.09914	0.00055
640.76000	0.10632	0.00056
640.80000	0.09817	0.00051
640.84000	0.10856	0.00051
640.88000	0.10474	0.00038
640.92000	0.10835	0.00033
640.96000	0.10835	0.00033
641.00000	0.10367	0.00036
641.04000	0.10662	0.00048
641.08000	0.10550	0.00046
641.12000	0.10290	0.00061
641.16000	0.10443	0.00041
641.20000	0.10835	0.00033
641.24000	0.10845	0.00047
641.28000	0.10637	0.00025
641.32000	0.10637	0.00025
641.36000	0.10576	0.00038
641.40000	0.10840	0.00025
641.44000	0.10535	0.00034
641.48000	0.10555	0.00050
641.52000	0.10382	0.00034
641.56000	0.10362	0.00064
641.60000	0.10102	0.00027
641.64000	0.10657	0.00038
641.68000	0.10744	0.00052
641.72000	0.10830	0.00055
641.76000	0.11512	0.00061
641.80000	0.10275	0.00033
641.84000	0.10280	0.00041
641.88000	0.11013	0.00044
641.92000	0.11227	0.00039
641.96000	0.11614	0.00034
642.00000	0.10637	0.00034
642.04000	0.11298	0.00047
642.08000	0.12154	0.00038
642.12000	0.12174	0.00057
642.16000	0.11497	0.00046
642.20000	0.11981	0.00050
642.24000	0.11385	0.00036
642.28000	0.12627	0.00047
642.32000	0.13310	0.00027
642.36000	0.13294	0.00041
642.40000	0.13473	0.00048
642.44000	0.13483	0.00040
642.48000	0.13951	0.00034
642.52000	0.14328	0.00048
642.56000	0.14812	0.00041
642.60000	0.14618	0.00041
642.64000	0.16217	0.00039
642.68000	0.16609	0.00046
642.72000	0.16583	0.00031
642.76000	0.17062	0.00047
642.80000	0.18218	0.00033
642.84000	0.18549	0.00031
642.88000	0.19883	0.00056
642.92000	0.19918	0.00033
642.96000	0.18961	0.00036
643.00000	0.20845	0.00027
643.04000	0.20824	0.00025
643.08000	0.21491	0.00047
643.12000	0.22031	0.00031
643.16000	0.21761	0.00036
643.20000	0.22500	0.00034
643.24000	0.21853	0.00046
643.28000	0.22337	0.00059
643.32000	0.22301	0.00047
643.36000	0.22046	0.00041
643.40000	0.22433	0.00048
643.44000	0.22067	0.00036
643.48000	0.22622	0.00050
643.52000	0.22790	0.00036
643.56000	0.21033	0.00034
643.60000	0.21023	0.00025
643.64000	0.21960	0.00038
643.68000	0.20916	0.00040
643.72000	0.20718	0.00034
643.76000	0.19124	0.00036
643.80000	0.19241	0.00052
643.84000	0.17332	0.00027
643.88000	0.17118	0.00040
643.92000	0.17154	0.00034
643.96000	0.15733	0.00025
644.00000	0.16314	0.00058
644.04000	0.14705	0.00033
644.08000	0.15092	0.00042
644.12000	0.13834	0.00050
644.16000	0.13773	0.00046
644.20000	0.13742	0.00041
644.24000	0.13182	0.00041
644.28000	0.12912	0.00036
644.32000	0.12337	0.00031
644.36000	0.12154	0.00038
644.40000	0.11492	0.00055
644.44000	0.11976	0.00046
644.48000	0.11991	0.00039
644.52000	0.10474	0.00044
644.56000	0.11426	0.00036
644.60000	0.11314	0.00040
644.64000	0.10825	0.00042
644.68000	0.11125	0.00039
644.72000	0.10255	0.00048
644.76000	0.10922	0.00046
644.80000	0.10912	0.00068
644.84000	0.10637	0.00034
644.88000	0.10820	0.00051
644.92000	0.10922	0.00032
644.96000	0.10845	0.00025
645.00000	0.10835	0.00040
645.04000	0.10560	0.00048
645.08000	0.10560	0.00042
645.12000	0.11024	0.00060
645.16000	0.10367	0.00042
645.20000	0.11197	0.00057
645.24000	0.10046	0.00055
645.28000	0.11207	0.00025
645.32000	0.10749	0.00047
645.36000	0.10194	0.00033
645.40000	0.10163	0.00048
645.44000	0.10820	0.00032
645.48000	0.11405	0.00034
645.52000	0.10840	0.00047
645.56000	0.10555	0.00050
645.60000	0.10937	0.00040
645.64000	0.11309	0.00047
645.68000	0.11314	0.00033
645.72000	0.10565	0.00039
645.76000	0.10453	0.00044
645.80000	0.10906	0.00056
645.84000	0.10642	0.00034
645.88000	0.10000	0.00048
645.92000	0.10362	0.00032
645.96000	0.10336	0.00047
646.00000	0.10815	0.00053
646.04000	0.10942	0.00057
646.08000	0.10270	0.00020
646.12000	0.10922	0.00039
646.16000	0.10733	0.00033
646.20000	0.10922	0.00056
646.24000	0.10464	0.00039
646.28000	0.10443	0.00025
646.32000	0.10835	0.00033
646.36000	0.10448	0.00033
646.40000	0.11130	0.00036
646.44000	0.10458	0.00036
646.48000	0.10754	0.00040
646.52000	0.10382	0.00061
646.56000	0.10372	0.00059
646.60000	0.10937	0.00040
646.64000	0.11029	0.00048
646.68000	0.10448	0.00033
646.72000	0.10927	0.00048
646.76000	0.11426	0.00015
646.80000	0.11614	0.00025
646.84000	0.11589	0.00036
646.88000	0.11971	0.00047
646.92000	0.12067	0.00034
646.96000	0.11293	0.00040
647.00000	0.12047	0.00058
647.04000	0.11976	0.00023
647.08000	0.12347	0.00051
647.12000	0.12643	0.00031
647.16000	0.12622	0.00025
647.20000	0.13238	0.00041
647.24000	0.12923	0.00033
647.28000	0.13366	0.00032
647.32000	0.13936	0.00050
647.36000	0.13569	0.00046
647.40000	0.14226	0.00042
647.44000	0.14216	0.00046
647.48000	0.14414	0.00047
647.52000	0.13951	0.00041
647.56000	0.14048	0.00041
647.60000	0.14048	0.00025
647.64000	0.14216	0.00088
647.68000	0.14908	0.00033
647.72000	0.15097	0.00032
647.76000	0.15112	0.00040
647.80000	0.14109	0.00025
647.84000	0.14496	0.00031
647.88000	0.14333	0.00032
647.92000	0.13366	0.00039
647.96000	0.14613	0.00025
648.00000	0.14043	0.00046
648.04000	0.14053	0.00025
648.08000	0.13763	0.00020
648.12000	0.13585	0.00040
648.16000	0.13753	0.00041
648.20000	0.12933	0.00047
648.24000	0.13467	0.00032
648.28000	0.12846	0.00038
648.32000	0.12826	0.00041
648.36000	0.12627	0.00047
648.40000	0.12342	0.00053
648.44000	0.12149	0.00048
648.48000	0.11411	0.00061
648.52000	0.11701	0.00023
648.56000	0.11421	0.00038
648.60000	0.10830	0.00038
648.64000	0.10850	0.00047
648.68000	0.10749	0.00034
648.72000	0.10484	0.00034
648.76000	0.10947	0.00034
648.80000	0.10901	0.00041
648.84000	0.10550	0.00040
648.88000	0.10657	0.00038
648.92000	0.10642	0.00047
648.96000	0.10657	0.00050
649.00000	0.10830	0.00050
649.04000	0.10301	0.00038
649.08000	0.10927	0.00036
649.12000	0.11044	0.00025
649.16000	0.10382	0.00041
649.20000	0.10759	0.00044
649.24000	0.10744	0.00047
649.28000	0.10744	0.00047
649.32000	0.10540	0.00034
649.36000	0.10148	0.00044
649.40000	0.10458	0.00048
649.44000	0.10560	0.00042
649.48000	0.10621	0.00027
649.52000	0.10662	0.00036
649.56000	0.10912	0.00044
649.60000	0.10469	0.00036
649.64000	0.10637	0.00034
649.68000	0.10652	0.00040
649.72000	0.10845	0.00047
649.76000	0.10733	0.00056
649.80000	0.10744	0.00061
649.84000	0.10637	0.00025
649.88000	0.10367	0.00048
649.92000	0.10092	0.00040
649.96000	0.10565	0.00051
650.00000	0.10372	0.00050
650.04000	0.09786	0.00033
650.08000	0.09690	0.00020
650.12000	0.09715	0.00056
650.16000	0.09725	0.00041
650.20000	0.10474	0.00031
650.24000	0.10173	0.00051
650.28000	0.10392	0.00034
650.32000	0.09802	0.00032
650.36000	0.10270	0.00059
650.40000	0.10255	0.00036
650.44000	0.09705	0.00036
650.48000	0.10891	0.00041
650.52000	0.10377	0.00046
650.56000	0.10448	0.00040
650.60000	0.10367	0.00053
650.64000	0.10077	0.00041
650.68000	0.10092	0.00033
650.72000	0.10295	0.00056
650.76000	0.10270	0.00020
650.80000	0.10285	0.00034
650.84000	0.10087	0.00034
650.88000	0.10458	0.00027
650.92000	0.10744	0.00025
650.96000	0.09893	0.00031
651.00000	0.09893	0.00044
651.04000	0.10458	0.00042
651.08000	0.09893	0.00059
651.12000	0.10102	0.00015
651.16000	0.10367	0.00053
651.20000	0.10520	0.00036
651.24000	0.10565	0.00046
651.28000	0.10570	0.00048
651.32000	0.10071	0.00046
651.36000	0.09903	0.00046
651.40000	0.10438	0.00034
651.44000	0.09903	0.00056
651.48000	0.09786	0.00046
651.52000	0.10163	0.00042
651.56000	0.09893	0.00050
651.60000	0.09878	0.00047
651.64000	0.09618	0.00041
651.68000	0.10265	0.00042
651.72000	0.09995	0.00044
651.76000	0.09766	0.00072
651.80000	0.10469	0.00036
651.84000	0.09995	0.00038
651.88000	0.10010	0.00027
651.92000	0.10163	0.00048
651.96000	0.10927	0.00027
652.00000	0.10168	0.00031
652.04000	0.10632	0.00033
652.08000	0.09791	0.00044
652.12000	0.10000	0.00036
652.16000	0.09985	0.00047
652.20000	0.10255	0.00036
652.24000	0.10448	0.00040
652.28000	0.10728	0.00050
652.32000	0.10077	0.00034
652.36000	0.10082	0.00025
652.40000	0.09786	0.00033
652.44000	0.10530	0.00040
652.48000	0.10576	0.00050
652.52000	0.10158	0.00039
652.56000	0.09878	0.00041
652.60000	0.10570	0.00062
652.64000	0.10280	0.00047
652.68000	0.10183	0.00052
652.72000	0.10280	0.00052
652.76000	0.10295	0.00051
652.80000	0.10275	0.00033
652.84000	0.09797	0.00036
652.88000	0.10754	0.00065
652.92000	0.10932	0.00031
652.96000	0.10718	0.00051
653.00000	0.10453	0.00031
653.04000	0.10474	0.00031
653.08000	0.10280	0.00041
653.12000	0.09990	0.00040
653.16000	0.10204	0.00048
653.20000	0.10840	0.00047
653.24000	0.10362	0.00023
653.28000	0.10464	0.00032
653.32000	0.10448	0.00033
653.36000	0.10458	0.00027
653.40000	0.10214	0.00042
653.44000	0.10199	0.00038
653.48000	0.09786	0.00051
653.52000	0.10189	0.00041
653.56000	0.10189	0.00065
653.60000	0.09781	0.00034
653.64000	0.09797	0.00015
653.68000	0.10713	0.00053
653.72000	0.10769	0.00032
653.76000	0.10097	0.00050
653.80000	0.09511	0.00056
653.84000	0.10733	0.00046
653.88000	0.10092	0.00046
653.92000	0.09914	0.00044
653.96000	0.09883	0.00034
654.00000	0.10260	0.00032
654.04000	0.10626	0.00050
654.08000	0.10662	0.00053
654.12000	0.09735	0.00051
654.16000	0.09980	0.00047
654.20000	0.10102	0.00053
654.24000	0.10087	0.00025
654.28000	0.10367	0.00036
654.32000	0.09985	0.00057
654.36000	0.10759	0.00044
654.40000	0.09995	0.00038
654.44000	0.10474	0.00031
654.48000	0.10270	0.00031
654.52000	0.10275	0.00046
654.56000	0.10183	0.00047
654.60000	0.09415	0.00025
654.64000	0.09679	0.00025
654.68000	0.10005	0.00039
654.72000	0.09909	0.00042
654.76000	0.10026	0.00041
654.80000	0.09914	0.00050
654.84000	0.09893	0.00031
654.88000	0.10194	0.00040
654.92000	0.10087	0.00041
654.96000	0.10667	0.00032
655.00000	0.10372	0.00044
655.04000	0.10255	0.00015
655.08000	0.09791	0.00031
655.12000	0.09802	0.00023
655.16000	0.10662	0.00062
655.20000	0.10382	0.00034
655.24000	0.10443	0.00034
655.28000	0.10835	0.00023
655.32000	0.09608	0.00038
655.36000	0.10576	0.00044
655.40000	0.09898	0.00036
655.44000	0.09888	0.00051
655.48000	0.10377	0.00033
655.52000	0.10295	0.00046
655.56000	0.10362	0.00039
