Raman-Spectrum _CHCl3 _spol9001.dat
27/09/2021
15:04:23
_CHCl3
_spol90 Temp: NON
X in nm	Y Signal 	Error Signal				
560.04000	0.10199	0.00031
560.08000	0.10178	0.00041
560.12000	0.10387	0.00047
560.16000	0.10382	0.00041
560.20000	0.10377	0.00033
560.24000	0.10626	0.00031
560.28000	0.10377	0.00046
560.32000	0.10372	0.00038
560.36000	0.10077	0.00034
560.40000	0.10530	0.00033
560.44000	0.09903	0.00060
560.48000	0.09919	0.00060
560.52000	0.10555	0.00050
560.56000	0.10270	0.00031
560.60000	0.10626	0.00038
560.64000	0.10122	0.00033
560.68000	0.10535	0.00041
560.72000	0.11115	0.00038
560.76000	0.11080	0.00027
560.80000	0.10194	0.00040
560.84000	0.10392	0.00025
560.88000	0.10474	0.00038
560.92000	0.09985	0.00057
560.96000	0.10550	0.00046
561.00000	0.10163	0.00042
561.04000	0.10357	0.00036
561.08000	0.10387	0.00047
561.12000	0.10071	0.00023
561.16000	0.09685	0.00023
561.20000	0.10550	0.00033
561.24000	0.10479	0.00023
561.28000	0.10010	0.00036
561.32000	0.10301	0.00031
561.36000	0.10295	0.00040
561.40000	0.10382	0.00034
561.44000	0.10183	0.00034
561.48000	0.10153	0.00048
561.52000	0.10749	0.00057
561.56000	0.10199	0.00050
561.60000	0.10535	0.00041
561.64000	0.10469	0.00036
561.68000	0.10464	0.00039
561.72000	0.10168	0.00031
561.76000	0.10285	0.00047
561.80000	0.10285	0.00025
561.84000	0.10204	0.00042
561.88000	0.10555	0.00044
561.92000	0.10738	0.00061
561.96000	0.10754	0.00040
562.00000	0.10280	0.00041
562.04000	0.10280	0.00025
562.08000	0.10275	0.00060
562.12000	0.10555	0.00038
562.16000	0.10555	0.00044
562.20000	0.10092	0.00040
562.24000	0.10077	0.00025
562.28000	0.10173	0.00046
562.32000	0.10754	0.00065
562.36000	0.10357	0.00027
562.40000	0.10178	0.00052
562.44000	0.10525	0.00038
562.48000	0.10484	0.00034
562.52000	0.09817	0.00040
562.56000	0.09807	0.00027
562.60000	0.09786	0.00051
562.64000	0.09985	0.00041
562.68000	0.10382	0.00034
562.72000	0.10209	0.00032
562.76000	0.10565	0.00039
562.80000	0.10189	0.00034
562.84000	0.10183	0.00034
562.88000	0.10092	0.00051
562.92000	0.10270	0.00031
562.96000	0.10071	0.00040
563.00000	0.10173	0.00040
563.04000	0.10168	0.00031
563.08000	0.09995	0.00038
563.12000	0.09975	0.00041
563.16000	0.10000	0.00053
563.20000	0.10285	0.00034
563.24000	0.10077	0.00041
563.28000	0.10066	0.00031
563.32000	0.09980	0.00052
563.36000	0.10688	0.00052
563.40000	0.10173	0.00033
563.44000	0.10173	0.00051
563.48000	0.09893	0.00068
563.52000	0.10071	0.00033
563.56000	0.09995	0.00038
563.60000	0.10560	0.00042
563.64000	0.10555	0.00044
563.68000	0.10448	0.00040
563.72000	0.10474	0.00050
563.76000	0.10565	0.00051
563.80000	0.10275	0.00040
563.84000	0.10662	0.00053
563.88000	0.10845	0.00041
563.92000	0.10545	0.00047
563.96000	0.10194	0.00023
564.00000	0.10560	0.00042
564.04000	0.10545	0.00034
564.08000	0.10265	0.00042
564.12000	0.10377	0.00033
564.16000	0.10545	0.00047
564.20000	0.10840	0.00034
564.24000	0.10810	0.00044
564.28000	0.10560	0.00058
564.32000	0.10555	0.00050
564.36000	0.10845	0.00025
564.40000	0.11293	0.00046
564.44000	0.11130	0.00048
564.48000	0.11706	0.00025
564.52000	0.12062	0.00047
564.56000	0.11675	0.00038
564.60000	0.11691	0.00042
564.64000	0.12052	0.00038
564.68000	0.11991	0.00032
564.72000	0.12632	0.00047
564.76000	0.12602	0.00039
564.80000	0.13203	0.00044
564.84000	0.13014	0.00036
564.88000	0.13600	0.00052
564.92000	0.13595	0.00041
564.96000	0.13483	0.00051
565.00000	0.13921	0.00036
565.04000	0.14114	0.00040
565.08000	0.14043	0.00040
565.12000	0.13747	0.00041
565.16000	0.15076	0.00034
565.20000	0.15076	0.00061
565.24000	0.14236	0.00042
565.28000	0.13859	0.00046
565.32000	0.14236	0.00036
565.36000	0.14893	0.00046
565.40000	0.14796	0.00036
565.44000	0.15000	0.00042
565.48000	0.15020	0.00034
565.52000	0.14501	0.00023
565.56000	0.14603	0.00033
565.60000	0.14435	0.00032
565.64000	0.13921	0.00036
565.68000	0.14445	0.00020
565.72000	0.13564	0.00048
565.76000	0.13590	0.00047
565.80000	0.13554	0.00023
565.84000	0.14211	0.00041
565.88000	0.14236	0.00042
565.92000	0.13666	0.00042
565.96000	0.13289	0.00041
566.00000	0.12994	0.00040
566.04000	0.13498	0.00041
566.08000	0.13483	0.00040
566.12000	0.12352	0.00058
566.16000	0.12627	0.00041
566.20000	0.12358	0.00050
566.24000	0.12612	0.00055
566.28000	0.11874	0.00023
566.32000	0.11874	0.00033
566.36000	0.11594	0.00050
566.40000	0.11599	0.00040
566.44000	0.10738	0.00034
566.48000	0.11421	0.00038
566.52000	0.10565	0.00056
566.56000	0.10744	0.00052
566.60000	0.11309	0.00041
566.64000	0.11400	0.00034
566.68000	0.11395	0.00033
566.72000	0.10621	0.00036
566.76000	0.10912	0.00031
566.80000	0.10728	0.00055
566.84000	0.10392	0.00034
566.88000	0.10408	0.00036
566.92000	0.10275	0.00040
566.96000	0.10290	0.00047
567.00000	0.10861	0.00031
567.04000	0.10453	0.00031
567.08000	0.10469	0.00042
567.12000	0.10352	0.00044
567.16000	0.10866	0.00042
567.20000	0.10723	0.00048
567.24000	0.10372	0.00038
567.28000	0.10357	0.00036
567.32000	0.10265	0.00042
567.36000	0.10474	0.00031
567.40000	0.10647	0.00034
567.44000	0.10397	0.00056
567.48000	0.10835	0.00046
567.52000	0.10728	0.00038
567.56000	0.10723	0.00048
567.60000	0.10565	0.00056
567.64000	0.10733	0.00046
567.68000	0.11222	0.00036
567.72000	0.11680	0.00036
567.76000	0.11782	0.00042
567.80000	0.12144	0.00032
567.84000	0.12021	0.00211
567.88000	0.11589	0.00048
567.92000	0.12643	0.00044
567.96000	0.11991	0.00051
568.00000	0.12174	0.00034
568.04000	0.13030	0.00052
568.08000	0.11497	0.00051
568.12000	0.12551	0.00060
568.16000	0.12536	0.00046
568.20000	0.12526	0.00041
568.24000	0.12149	0.00036
568.28000	0.13198	0.00040
568.32000	0.13355	0.00055
568.36000	0.13198	0.00046
568.40000	0.13198	0.00046
568.44000	0.13203	0.00044
568.48000	0.14425	0.00050
568.52000	0.13870	0.00027
568.56000	0.13574	0.00048
568.60000	0.13737	0.00033
568.64000	0.14053	0.00041
568.68000	0.14343	0.00044
568.72000	0.13381	0.00056
568.76000	0.13371	0.00042
568.80000	0.13585	0.00065
568.84000	0.13396	0.00041
568.88000	0.13493	0.00034
568.92000	0.13488	0.00034
568.96000	0.13279	0.00033
569.00000	0.12449	0.00051
569.04000	0.12459	0.00031
569.08000	0.13493	0.00041
569.12000	0.12551	0.00051
569.16000	0.12729	0.00061
569.20000	0.13014	0.00042
569.24000	0.11594	0.00031
569.28000	0.11456	0.00034
569.32000	0.11482	0.00032
569.36000	0.11767	0.00052
569.40000	0.11507	0.00041
569.44000	0.11614	0.00052
569.48000	0.11899	0.00020
569.52000	0.11212	0.00033
569.56000	0.10922	0.00023
569.60000	0.11039	0.00033
569.64000	0.11013	0.00038
569.68000	0.10891	0.00041
569.72000	0.10367	0.00027
569.76000	0.10178	0.00047
569.80000	0.10621	0.00027
569.84000	0.10173	0.00051
569.88000	0.10199	0.00031
569.92000	0.10189	0.00034
569.96000	0.10550	0.00051
570.00000	0.10922	0.00056
570.04000	0.10723	0.00036
570.08000	0.09715	0.00040
570.12000	0.10835	0.00046
570.16000	0.10830	0.00050
570.20000	0.09776	0.00047
570.24000	0.09771	0.00041
570.28000	0.10178	0.00052
570.32000	0.10260	0.00039
570.36000	0.10061	0.00036
570.40000	0.10265	0.00048
570.44000	0.10637	0.00047
570.48000	0.10738	0.00065
570.52000	0.10728	0.00031
570.56000	0.10474	0.00031
570.60000	0.10754	0.00046
570.64000	0.10850	0.00034
570.68000	0.10357	0.00036
570.72000	0.10642	0.00025
570.76000	0.10448	0.00033
570.80000	0.10458	0.00027
570.84000	0.10545	0.00047
570.88000	0.10820	0.00060
570.92000	0.10820	0.00023
570.96000	0.10912	0.00031
571.00000	0.10845	0.00047
571.04000	0.10932	0.00055
571.08000	0.11298	0.00041
571.12000	0.11329	0.00051
571.16000	0.11217	0.00038
571.20000	0.11416	0.00040
571.24000	0.11212	0.00033
571.28000	0.11477	0.00048
571.32000	0.11054	0.00047
571.36000	0.11298	0.00057
571.40000	0.11293	0.00040
571.44000	0.11405	0.00034
571.48000	0.11864	0.00025
571.52000	0.11884	0.00036
571.56000	0.11416	0.00051
571.60000	0.11624	0.00044
571.64000	0.11619	0.00033
571.68000	0.11614	0.00041
571.72000	0.11309	0.00041
571.76000	0.11105	0.00034
571.80000	0.11752	0.00040
571.84000	0.11100	0.00041
571.88000	0.11034	0.00044
571.92000	0.10815	0.00027
571.96000	0.11288	0.00044
572.00000	0.11319	0.00031
572.04000	0.10642	0.00047
572.08000	0.11482	0.00060
572.12000	0.11034	0.00044
572.16000	0.10733	0.00040
572.20000	0.10830	0.00038
572.24000	0.11018	0.00042
572.28000	0.11029	0.00053
572.32000	0.11293	0.00051
572.36000	0.11120	0.00042
572.40000	0.10917	0.00066
572.44000	0.10443	0.00034
572.48000	0.11008	0.00056
572.52000	0.10469	0.00036
572.56000	0.11008	0.00046
572.60000	0.11018	0.00036
572.64000	0.10662	0.00042
572.68000	0.11120	0.00036
572.72000	0.10458	0.00027
572.76000	0.09715	0.00033
572.80000	0.09842	0.00038
572.84000	0.10275	0.00056
572.88000	0.10270	0.00038
572.92000	0.10005	0.00032
572.96000	0.10922	0.00023
573.00000	0.10178	0.00034
573.04000	0.10469	0.00036
573.08000	0.10021	0.00033
573.12000	0.09903	0.00032
573.16000	0.09893	0.00050
573.20000	0.10474	0.00044
573.24000	0.09898	0.00058
573.28000	0.10183	0.00041
573.32000	0.10723	0.00036
573.36000	0.10667	0.00039
573.40000	0.10474	0.00031
573.44000	0.11090	0.00060
573.48000	0.11080	0.00027
573.52000	0.11197	0.00034
573.56000	0.10733	0.00040
573.60000	0.11599	0.00051
573.64000	0.11227	0.00039
573.68000	0.11008	0.00040
573.72000	0.11680	0.00036
573.76000	0.11685	0.00046
573.80000	0.11232	0.00042
573.84000	0.11573	0.00038
573.88000	0.11624	0.00031
573.92000	0.12174	0.00041
573.96000	0.12627	0.00057
574.00000	0.11864	0.00047
574.04000	0.11864	0.00061
574.08000	0.12638	0.00051
574.12000	0.12444	0.00048
574.16000	0.12541	0.00044
574.20000	0.12892	0.00040
574.24000	0.11889	0.00051
574.28000	0.12963	0.00042
574.32000	0.13366	0.00023
574.36000	0.13391	0.00052
574.40000	0.13203	0.00038
574.44000	0.13299	0.00033
574.48000	0.13493	0.00025
574.52000	0.12821	0.00046
574.56000	0.13656	0.00040
574.60000	0.13294	0.00034
574.64000	0.13284	0.00034
574.68000	0.13488	0.00041
574.72000	0.13931	0.00036
574.76000	0.12734	0.00041
574.80000	0.13024	0.00040
574.84000	0.12821	0.00040
574.88000	0.12164	0.00041
574.92000	0.12923	0.00040
574.96000	0.12902	0.00027
575.00000	0.13483	0.00040
575.04000	0.13289	0.00034
575.08000	0.13305	0.00031
575.12000	0.13676	0.00027
575.16000	0.13498	0.00025
575.20000	0.14119	0.00038
575.24000	0.14145	0.00033
575.28000	0.13681	0.00020
575.32000	0.13753	0.00034
575.36000	0.14257	0.00047
575.40000	0.14694	0.00015
575.44000	0.14328	0.00036
575.48000	0.14603	0.00023
575.52000	0.14613	0.00052
575.56000	0.15102	0.00042
575.60000	0.14796	0.00053
575.64000	0.16319	0.00032
575.68000	0.16512	0.00031
575.72000	0.16125	0.00038
575.76000	0.16594	0.00041
575.80000	0.16700	0.00047
575.84000	0.16706	0.00034
575.88000	0.16970	0.00038
575.92000	0.17602	0.00038
575.96000	0.18187	0.00033
576.00000	0.18844	0.00034
576.04000	0.18009	0.00044
576.08000	0.17541	0.00023
576.12000	0.17525	0.00040
576.16000	0.17892	0.00048
576.20000	0.17917	0.00041
576.24000	0.17902	0.00042
576.28000	0.17800	0.00036
576.32000	0.17525	0.00051
576.36000	0.16787	0.00031
576.40000	0.16945	0.00023
576.44000	0.16940	0.00038
576.48000	0.16395	0.00041
576.52000	0.15932	0.00025
576.56000	0.16308	0.00044
576.60000	0.15158	0.00038
576.64000	0.14974	0.00025
576.68000	0.14710	0.00041
576.72000	0.14710	0.00025
576.76000	0.14420	0.00040
576.80000	0.13966	0.00038
576.84000	0.13773	0.00051
576.88000	0.14043	0.00023
576.92000	0.12607	0.00042
576.96000	0.12719	0.00023
577.00000	0.12729	0.00034
577.04000	0.12541	0.00044
577.08000	0.12536	0.00051
577.12000	0.11670	0.00051
577.16000	0.11477	0.00027
577.20000	0.10922	0.00046
577.24000	0.10932	0.00031
577.28000	0.10372	0.00044
577.32000	0.10387	0.00034
577.36000	0.10097	0.00020
577.40000	0.10372	0.00044
577.44000	0.10336	0.00047
577.48000	0.10545	0.00052
577.52000	0.10830	0.00044
577.56000	0.10464	0.00023
577.60000	0.10464	0.00032
577.64000	0.10092	0.00023
577.68000	0.10458	0.00042
577.72000	0.10183	0.00041
577.76000	0.10942	0.00052
577.80000	0.10469	0.00036
577.84000	0.09985	0.00047
577.88000	0.10010	0.00036
577.92000	0.10570	0.00036
577.96000	0.10545	0.00047
578.00000	0.10285	0.00041
578.04000	0.09807	0.00048
578.08000	0.09802	0.00023
578.12000	0.10367	0.00027
578.16000	0.09868	0.00040
578.20000	0.09919	0.00033
578.24000	0.11018	0.00053
578.28000	0.10280	0.00034
578.32000	0.10626	0.00044
578.36000	0.10453	0.00055
578.40000	0.10392	0.00034
578.44000	0.10642	0.00057
578.48000	0.10642	0.00025
578.52000	0.10448	0.00023
578.56000	0.10285	0.00034
578.60000	0.10657	0.00038
578.64000	0.10372	0.00050
578.68000	0.10713	0.00066
578.72000	0.10077	0.00041
578.76000	0.09827	0.00025
578.80000	0.09812	0.00059
578.84000	0.10362	0.00039
578.88000	0.10199	0.00031
578.92000	0.10738	0.00034
578.96000	0.10657	0.00044
579.00000	0.10749	0.00057
579.04000	0.10810	0.00044
579.08000	0.10835	0.00040
579.12000	0.10285	0.00041
579.16000	0.10998	0.00052
579.20000	0.10550	0.00033
579.24000	0.11024	0.00051
579.28000	0.11120	0.00058
579.32000	0.11523	0.00044
579.36000	0.11502	0.00052
579.40000	0.11436	0.00036
579.44000	0.11304	0.00061
579.48000	0.11115	0.00038
579.52000	0.11110	0.00040
579.56000	0.11283	0.00048
579.60000	0.12057	0.00046
579.64000	0.11965	0.00041
579.68000	0.11981	0.00044
579.72000	0.11492	0.00044
579.76000	0.12164	0.00034
579.80000	0.12332	0.00033
579.84000	0.11874	0.00033
579.88000	0.12083	0.00038
579.92000	0.12067	0.00041
579.96000	0.12083	0.00038
580.00000	0.11563	0.00025
580.04000	0.12144	0.00023
580.08000	0.12536	0.00033
580.12000	0.12444	0.00027
580.16000	0.12164	0.00041
580.20000	0.12332	0.00051
580.24000	0.12352	0.00042
580.28000	0.12719	0.00040
580.32000	0.12459	0.00064
580.36000	0.12439	0.00031
580.40000	0.11894	0.00015
580.44000	0.13014	0.00042
580.48000	0.12510	0.00038
580.52000	0.12240	0.00048
580.56000	0.12251	0.00036
580.60000	0.13391	0.00052
580.64000	0.12989	0.00041
580.68000	0.13376	0.00044
580.72000	0.13926	0.00039
580.76000	0.14150	0.00034
580.80000	0.14145	0.00046
580.84000	0.14124	0.00048
580.88000	0.14063	0.00040
580.92000	0.13681	0.00031
580.96000	0.14353	0.00034
581.00000	0.14812	0.00034
581.04000	0.14964	0.00034
581.08000	0.14980	0.00023
581.12000	0.15244	0.00048
581.16000	0.15270	0.00025
581.20000	0.15850	0.00038
581.24000	0.16003	0.00044
581.28000	0.17062	0.00034
581.32000	0.16334	0.00033
581.36000	0.17154	0.00061
581.40000	0.17841	0.00042
581.44000	0.17821	0.00041
581.48000	0.17423	0.00046
581.52000	0.17719	0.00041
581.56000	0.18294	0.00050
581.60000	0.17327	0.00038
581.64000	0.17429	0.00044
581.68000	0.17815	0.00047
581.72000	0.17800	0.00036
581.76000	0.16940	0.00038
581.80000	0.17266	0.00041
581.84000	0.16629	0.00036
581.88000	0.16410	0.00038
581.92000	0.16706	0.00041
581.96000	0.15937	0.00034
582.00000	0.15764	0.00048
582.04000	0.15723	0.00040
582.08000	0.15937	0.00025
582.12000	0.15921	0.00050
582.16000	0.15458	0.00042
582.20000	0.15346	0.00036
582.24000	0.14608	0.00041
582.28000	0.14684	0.00027
582.32000	0.14710	0.00052
582.36000	0.13610	0.00044
582.40000	0.13961	0.00046
582.44000	0.13590	0.00057
582.48000	0.13091	0.00034
582.52000	0.13091	0.00025
582.56000	0.12699	0.00015
582.60000	0.12714	0.00050
582.64000	0.12047	0.00042
582.68000	0.11568	0.00033
582.72000	0.11207	0.00025
582.76000	0.11599	0.00056
582.80000	0.11197	0.00041
582.84000	0.10652	0.00040
582.88000	0.10947	0.00047
582.92000	0.10932	0.00031
582.96000	0.10850	0.00041
583.00000	0.10183	0.00052
583.04000	0.10474	0.00038
583.08000	0.10107	0.00039
583.12000	0.11400	0.00025
583.16000	0.10927	0.00036
583.20000	0.10932	0.00044
583.24000	0.10642	0.00041
583.28000	0.11029	0.00048
583.32000	0.10458	0.00042
583.36000	0.10453	0.00031
583.40000	0.10479	0.00023
583.44000	0.10387	0.00041
583.48000	0.10260	0.00032
583.52000	0.10280	0.00025
583.56000	0.10555	0.00038
583.60000	0.10453	0.00055
583.64000	0.10652	0.00046
583.68000	0.10545	0.00052
583.72000	0.10448	0.00046
583.76000	0.10270	0.00038
583.80000	0.10280	0.00041
583.84000	0.11202	0.00034
583.88000	0.10285	0.00047
583.92000	0.10759	0.00038
583.96000	0.10774	0.00036
584.00000	0.10749	0.00041
584.04000	0.11044	0.00034
584.08000	0.11034	0.00038
584.12000	0.11691	0.00027
584.16000	0.11512	0.00041
584.20000	0.11334	0.00027
584.24000	0.11563	0.00052
584.28000	0.11497	0.00046
584.32000	0.11772	0.00051
584.36000	0.11869	0.00034
584.40000	0.11884	0.00027
584.44000	0.12159	0.00040
584.48000	0.12358	0.00055
584.52000	0.12449	0.00032
584.56000	0.11772	0.00065
584.60000	0.12612	0.00075
584.64000	0.12515	0.00046
584.68000	0.12536	0.00033
584.72000	0.12800	0.00036
584.76000	0.13208	0.00027
584.80000	0.12240	0.00027
584.84000	0.12352	0.00053
584.88000	0.13187	0.00041
584.92000	0.13315	0.00032
584.96000	0.13371	0.00048
585.00000	0.13386	0.00052
585.04000	0.13014	0.00048
585.08000	0.13208	0.00048
585.12000	0.13091	0.00034
585.16000	0.12902	0.00027
585.20000	0.12363	0.00046
585.24000	0.12449	0.00000
585.28000	0.12434	0.00040
585.32000	0.12251	0.00027
585.36000	0.11874	0.00033
585.40000	0.12251	0.00036
585.44000	0.11685	0.00032
585.48000	0.11884	0.00027
585.52000	0.11314	0.00051
585.56000	0.11293	0.00040
585.60000	0.11772	0.00040
585.64000	0.11584	0.00051
585.68000	0.11879	0.00038
585.72000	0.11502	0.00041
585.76000	0.11976	0.00056
585.80000	0.10830	0.00044
585.84000	0.10718	0.00060
585.88000	0.10728	0.00044
585.92000	0.10835	0.00033
585.96000	0.11293	0.00033
586.00000	0.11293	0.00056
586.04000	0.11085	0.00055
586.08000	0.11034	0.00050
586.12000	0.11589	0.00048
586.16000	0.11604	0.00041
586.20000	0.11487	0.00053
586.24000	0.11859	0.00034
586.28000	0.12159	0.00046
586.32000	0.12225	0.00034
586.36000	0.12245	0.00023
586.40000	0.13213	0.00032
586.44000	0.13218	0.00042
586.48000	0.13305	0.00020
586.52000	0.13391	0.00047
586.56000	0.14048	0.00047
586.60000	0.13503	0.00033
586.64000	0.15641	0.00046
586.68000	0.14735	0.00042
586.72000	0.14705	0.00023
586.76000	0.14705	0.00040
586.80000	0.15448	0.00036
586.84000	0.16212	0.00053
586.88000	0.16003	0.00044
586.92000	0.16298	0.00041
586.96000	0.16232	0.00046
587.00000	0.16018	0.00042
587.04000	0.16044	0.00057
587.08000	0.17143	0.00038
587.12000	0.17159	0.00041
587.16000	0.16695	0.00052
587.20000	0.16879	0.00051
587.24000	0.16945	0.00023
587.28000	0.16904	0.00025
587.32000	0.16695	0.00052
587.36000	0.16700	0.00041
587.40000	0.16033	0.00041
587.44000	0.16003	0.00031
587.48000	0.15285	0.00046
587.52000	0.15733	0.00025
587.56000	0.15657	0.00046
587.60000	0.15652	0.00027
587.64000	0.15636	0.00025
587.68000	0.16380	0.00038
587.72000	0.14898	0.00048
587.76000	0.14302	0.00034
587.80000	0.14236	0.00053
587.84000	0.13564	0.00036
587.88000	0.12897	0.00038
587.92000	0.12907	0.00039
587.96000	0.13086	0.00025
588.00000	0.12093	0.00032
588.04000	0.12358	0.00050
588.08000	0.11787	0.00046
588.12000	0.11971	0.00041
588.16000	0.11971	0.00041
588.20000	0.11385	0.00053
588.24000	0.11395	0.00056
588.28000	0.11039	0.00056
588.32000	0.10912	0.00044
588.36000	0.10820	0.00046
588.40000	0.10453	0.00064
588.44000	0.11288	0.00038
588.48000	0.10820	0.00023
588.52000	0.10845	0.00034
588.56000	0.10514	0.00032
588.60000	0.10657	0.00038
588.64000	0.11120	0.00036
588.68000	0.10642	0.00025
588.72000	0.10830	0.00020
588.76000	0.10540	0.00041
588.80000	0.10540	0.00034
588.84000	0.10357	0.00036
588.88000	0.10906	0.00040
588.92000	0.10367	0.00036
588.96000	0.10922	0.00046
589.00000	0.11568	0.00033
589.04000	0.11701	0.00046
589.08000	0.11477	0.00036
589.12000	0.11492	0.00068
589.16000	0.11304	0.00052
589.20000	0.11889	0.00032
589.24000	0.12449	0.00032
589.28000	0.12347	0.00051
589.32000	0.12617	0.00040
589.36000	0.13096	0.00033
589.40000	0.13111	0.00051
589.44000	0.12719	0.00040
589.48000	0.12597	0.00053
589.52000	0.13218	0.00048
589.56000	0.13865	0.00038
589.60000	0.14231	0.00039
589.64000	0.14328	0.00042
589.68000	0.14511	0.00025
589.72000	0.14521	0.00033
589.76000	0.14430	0.00036
589.80000	0.14313	0.00034
589.84000	0.14862	0.00041
589.88000	0.15097	2.77556E-17
589.92000	0.15443	0.00038
589.96000	0.15937	0.00041
590.00000	0.15932	0.00041
590.04000	0.14694	0.00048
590.08000	0.14929	0.00040
590.12000	0.15850	0.00050
590.16000	0.15479	0.00041
590.20000	0.15428	0.00052
590.24000	0.16130	0.00033
590.28000	0.16115	0.00046
590.32000	0.14409	0.00052
590.36000	0.14195	0.00023
590.40000	0.14888	0.00036
590.44000	0.14812	0.00057
590.48000	0.15255	0.00058
590.52000	0.14588	0.00046
590.56000	0.14720	0.00047
