Waveleght	Intensity	Error
585.43	0.09517	0.00047
585.48	0.09618	0.00047
585.52	0.09618	0.00047
585.56	0.10087	0.00034
585.6	0.08941	0.00048
585.64	0.10168	0.00055
585.68	0.09914	0.00055
585.72	0.0999	0.00023
585.76	0.09786	0.00046
585.8	0.09618	0.00034
585.84	0.09634	0.00051
585.88	0.09221	0.00034
585.92	0.097	0.00032
585.95	0.09522	0.00041
586.0	0.09893	0.00038
586.04	0.09323	0.00047
586.07	0.09226	0.00046
586.12	0.09221	0.00041
586.16	0.09517	0.00041
586.19	0.09608	0.00031
586.24	0.09618	0.00047
586.28	0.09435	0.0005
586.31	0.09695	0.00042
586.36	0.09598	0.00032
586.4	0.09613	0.0004
586.43	0.09303	0.00044
586.48	0.09695	0.00036
586.52	0.09343	0.00046
586.56	0.09629	0.00041
586.6	0.09511	0.00051
586.64	0.10346	0.00068
586.68	0.09425	0.00041
586.72	0.0943	0.00056
586.76	0.09893	0.00038
586.8	0.09527	0.00047
586.84	0.09741	0.00055
586.88	0.09618	0.00034
586.92	0.09715	0.00046
586.95	0.0942	0.00025
587.0	0.09425	0.00047
587.04	0.09995	0.00038
587.07	0.10178	0.00034
587.12	0.10077	0.00041
587.16	0.10026	0.00041
587.19	0.10458	0.00036
587.24	0.10087	0.00052
587.28	0.09613	0.00046
587.31	0.09613	0.00046
587.36	0.09781	0.00025
587.4	0.10632	0.00033
587.43	0.10097	0.00031
587.48	0.10453	0.00031
587.52	0.09888	0.00056
587.56	0.0942	0.00041
587.6	0.09435	0.00038
587.64	0.09909	0.00042
587.68	0.097	0.00039
587.72	0.10158	0.00068
587.76	0.10163	0.00053
587.8	0.09898	0.00058
587.84	0.09878	0.00041
587.88	0.09919	0.00065
587.92	0.10071	0.00033
587.95	0.09506	0.00038
588.0	0.09552	0.00042
588.04	0.10209	0.00039
588.07	0.097	0.00051
588.12	0.09201	0.00031
588.16	0.09588	0.00038
588.19	0.09583	0.00046
588.24	0.09791	0.00044
588.28	0.08941	0.00036
588.31	0.10209	0.00032
588.36	0.09893	0.00044
588.4	0.09242	0.00039
588.43	0.09995	0.00038
588.48	0.0999	0.00046
588.52	0.09995	0.00055
588.56	0.09807	0.00042
588.6	0.09909	0.00042
588.64	0.0972	0.00041
588.68	0.09715	0.0004
588.72	0.10066	0.00055
588.76	0.10082	0.00025
588.8	0.09236	0.00036
588.84	0.09618	0.00034
588.88	0.09511	0.00056
588.92	0.09608	0.00044
588.95	0.09527	0.00041
589.0	0.09501	0.00048
589.04	0.09623	0.00041
589.07	0.09629	0.00034
589.12	0.09552	0.00048
589.16	0.097	0.00032
589.19	0.08783	0.00032
589.24	0.09975	0.00025
589.28	0.09618	0.00034
589.31	0.09603	0.00036
589.36	0.09573	0.00025
589.4	0.09532	0.00051
589.43	0.10092	0.00023
589.48	0.09328	0.00033
589.52	0.09527	0.00047
589.56	0.09242	0.00039
589.6	0.09343	0.00046
589.64	0.09522	0.00047
589.68	0.09527	0.00034
589.72	0.09028	0.00055
589.76	0.09797	0.00036
589.8	0.09741	0.00044
589.84	0.0971	0.00044
589.88	0.09216	0.00041
589.92	0.1025	0.0005
589.95	0.1027	0.00055
590.0	0.09975	0.00041
590.04	0.097	0.00056
590.07	0.09929	0.00065
590.12	0.09975	0.00052
590.16	0.09924	0.00047
590.19	0.10265	0.00027
590.24	0.1029	0.00041
590.28	0.09715	0.00046
590.31	0.1027	0.00038
590.36	0.10163	0.00048
590.4	0.09715	0.00046
590.43	0.0999	0.0004
590.48	0.097	0.00039
590.52	0.10071	0.0004
590.56	0.10092	0.0004
590.6	0.09898	0.00062
590.64	0.10357	0.00027
590.68	0.09623	0.00034
590.72	0.09995	0.00044
590.76	0.09995	0.00064
590.8	0.10005	0.00032
590.84	0.0998	0.00047
590.88	0.09415	0.00034
590.92	0.09791	0.00031
590.95	0.10474	0.00031
591.0	0.10652	0.0004
591.04	0.10204	0.00042
591.07	0.10005	0.00039
591.12	0.09445	0.00258
591.16	0.09328	0.0004
591.19	0.09995	0.0005
591.24	0.09303	0.00038
591.28	0.09873	0.00041
591.31	0.09679	0.00034
591.36	0.0998	0.00041
591.4	0.09929	0.00057
591.43	0.09898	0.00027
591.48	0.09527	0.00034
591.52	0.09888	0.00046
591.56	0.09608	0.00055
591.6	0.09517	0.00041
591.64	0.09705	0.00042
591.68	0.09501	0.00062
591.72	0.09522	0.00061
591.76	0.09985	0.00034
591.8	0.10255	0.00036
591.84	0.10458	0.00048
591.88	0.09863	0.00059
591.92	0.0972	0.00041
591.95	0.09903	0.00056
592.0	0.09786	0.0004
592.04	0.09827	0.00034
592.07	0.10005	0.00056
592.12	0.10397	0.00046
592.16	0.10255	0.00036
592.19	0.09532	0.0004
592.24	0.09552	0.00036
592.28	0.09985	0.00041
592.31	0.09995	0.0005
592.36	0.10066	0.0002
592.4	0.09613	0.00056
592.43	0.09883	0.00047
592.48	0.09791	0.0005
592.52	0.09598	0.00039
592.56	0.09909	0.00048
592.6	0.09898	0.00027
592.64	0.0971	0.00031
592.68	0.09898	0.00042
592.72	0.09725	0.00034
592.76	0.09593	0.00027
592.8	0.10168	0.00044
592.84	0.09496	0.00039
592.88	0.09613	0.0004
592.92	0.09634	0.00033
592.95	0.0941	0.00046
593.0	0.09883	0.00041
593.04	0.09333	0.00044
593.07	0.10199	0.00044
593.12	0.09618	0.00034
593.16	0.10652	0.00046
593.19	0.10657	0.00038
593.24	0.09807	0.00027
593.28	0.09455	0.00059
593.31	0.09613	0.00023
593.36	0.10087	0.00034
593.4	0.09522	0.00041
593.43	0.09695	0.00027
593.48	0.09491	0.00036
593.52	0.09522	0.00041
593.56	0.09705	0.00048
593.6	0.10535	0.00041
593.64	0.09995	0.0005
593.68	0.09623	0.00034
593.72	0.09715	0.00046
593.76	0.09527	0.00034
593.8	0.09506	0.00038
593.84	0.10367	0.00042
593.88	0.10173	0.00033
593.92	0.09674	0.00041
593.95	0.10239	0.00041
594.0	0.09583	0.00046
594.04	0.0969	0.00031
594.07	0.0972	0.00041
594.12	0.0972	0.00047
594.16	0.10295	0.00051
594.19	0.10015	0.00031
594.24	0.1	0.00036
594.28	0.1001	0.00036
594.31	0.10015	0.00038
594.36	0.10255	0.00048
594.4	0.1026	0.00046
594.43	0.1	0.00036
594.48	0.09705	0.00048
594.52	0.09506	0.0002
594.56	0.09985	0.00034
594.6	0.09425	0.00047
594.64	0.10204	0.00053
594.68	0.10214	0.00015
594.72	0.09623	0.00041
594.76	0.10214	0.00042
594.8	0.09975	0.00041
594.84	0.09705	0.00042
594.88	0.09705	0.00042
594.92	0.09685	0.0006
594.95	0.0973	0.00047
595.0	0.10438	0.00034
595.04	0.09226	0.00056
595.07	0.09883	0.00041
595.12	0.09797	0.00015
595.16	0.09903	0.00064
595.19	0.10168	0.00044
595.24	0.09893	0.00038
595.28	0.09909	0.00027
595.31	0.09705	0.00036
595.36	0.09807	0.00027
595.4	0.09695	0.00053
595.43	0.09827	0.00034
595.48	0.0998	0.00041
595.52	0.0999	0.00046
595.56	0.0999	0.0004
595.6	0.09883	0.00052
595.64	0.10285	0.00047
595.68	0.10189	0.00041
595.72	0.10469	0.00062
595.76	0.1001	0.00027
595.8	0.10107	0.00039
595.84	0.09603	0.00036
595.88	0.09593	0.00058
595.92	0.10545	0.00065
595.95	0.09898	0.00053
596.0	0.09919	0.0006
596.04	0.09985	0.00057
596.07	0.09328	0.00046
596.12	0.10438	0.00034
596.16	0.10469	0.00036
596.19	0.10015	0.00038
596.24	0.10295	0.00033
596.28	0.10173	0.00033
596.31	0.09354	0.00044
596.36	0.09797	0.00048
596.4	0.09303	0.00038
596.43	0.09348	0.00053
596.48	0.09705	0.00036
596.52	0.1026	1.38778e-17
596.56	0.09786	0.00023
596.6	0.10066	0.00031
596.64	0.10005	0.00051
596.68	0.10453	0.00038
596.72	0.10555	0.00044
596.76	0.10555	0.0005
596.8	0.10189	0.00025
596.84	0.10301	0.00038
596.88	0.09909	0.00053
596.92	0.10194	0.0004
596.95	0.10158	0.00039
597.0	0.10367	0.00042
597.04	0.10367	0.00015
597.07	0.09893	0.00055
597.12	0.10071	0.00033
597.16	0.09903	0.00046
597.19	0.10189	0.00034
597.24	0.09786	0.00051
597.28	0.10005	0.00051
597.31	0.09975	0.00047
597.36	0.1056	0.00048
597.4	0.10555	0.00044
597.43	0.10194	0.00033
597.48	0.10102	0.00066
597.52	0.09985	0.00041
597.56	0.10163	0.00042
597.6	0.09802	0.00051
597.64	0.09771	0.00052
597.68	0.10021	0.00046
597.72	0.1025	0.0005
597.76	0.10199	0.00044
597.8	0.10301	0.00055
597.84	0.10917	0.00053
597.88	0.10453	0.00031
597.92	0.10458	0.00036
597.95	0.10917	0.00058
598.0	0.1055	0.00051
598.04	0.09975	0.00034
598.07	0.10275	0.00033
598.12	0.10275	0.00023
598.16	0.0999	0.00046
598.19	0.09511	0.00033
598.24	0.09511	0.00046
598.28	0.10448	0.00056
598.31	0.09919	0.0004
598.36	0.1029	0.00041
598.4	0.09893	0.00064
598.43	0.10189	0.00052
598.48	0.10082	0.00025
598.52	0.10082	0.00041
598.56	0.10209	0.00032
598.6	0.09893	0.0005
598.64	0.10189	0.00047
598.68	0.10082	0.00034
598.72	0.10372	0.00038
598.76	0.10005	0.00032
598.8	0.09995	0.00038
598.84	0.10479	0.00046
598.88	0.09705	0.00036
598.92	0.10189	0.00041
598.95	0.09893	0.0005
599.0	0.09781	0.00034
599.04	0.10387	0.00041
599.07	0.10453	0.00031
599.12	0.10458	0.00027
599.16	0.10173	0.00033
599.19	0.10448	0.00046
599.24	0.10301	0.00044
599.28	0.1029	0.00065
599.31	0.10189	0.00034
599.36	0.10173	0.00051
599.4	0.10189	0.00057
599.43	0.10357	0.00042
599.48	0.10097	0.00044
599.52	0.10637	0.00034
599.56	0.10362	0.00039
599.6	0.10082	0.00047
599.64	0.10448	0.00033
599.68	0.10199	0.00044
599.72	0.10168	0.00038
599.76	0.10718	0.00039
599.8	0.10178	0.00041
599.84	0.10285	0.00057
599.88	0.10749	0.00047
599.92	0.10759	0.00031
599.95	0.10469	0.00036
600.0	0.10458	0.00027
600.04	0.10265	0.00036
600.07	0.10092	0.00046
600.12	0.1056	0.00042
600.16	0.10443	0.00041
600.19	0.10082	0.00034
600.24	0.10906	0.00046
600.28	0.10942	0.00057
600.31	0.10285	0.00041
600.36	0.1113	0.00048
600.4	0.1001	0.00042
600.43	0.11054	0.00034
600.48	0.10275	0.0004
600.52	0.10153	0.00048
600.56	0.1082	0.00023
600.6	0.10835	0.00033
600.64	0.09517	0.00041
600.68	0.1085	0.00041
600.72	0.10723	0.00066
600.76	0.1026	0.00056
600.8	0.10265	0.00042
600.84	0.10117	0.00044
600.88	0.10066	0.0005
600.92	0.10275	0.00046
600.95	0.10733	0.00065
601.0	0.1054	0.00034
601.04	0.0972	0.00034
601.07	0.10367	0.00027
601.12	0.1055	0.00056
601.16	0.1056	0.00042
601.19	0.10744	0.00034
601.24	0.10372	0.00044
601.28	0.10285	0.00025
601.31	0.10458	0.00036
601.36	0.10637	0.00034
601.4	0.10438	0.00057
601.43	0.09898	0.00048
601.48	0.09919	0.00065
601.52	0.10275	0.0004
601.56	0.1057	0.00048
601.6	0.1084	0.00025
601.64	0.10744	0.00041
601.68	0.10555	0.00038
601.72	0.10718	0.00032
601.76	0.10723	0.00053
601.8	0.10458	0.00048
601.84	0.10285	0.00047
601.88	0.11115	0.00059
601.92	0.1055	0.0004
601.95	0.10469	0.00036
602.0	0.10178	0.00041
602.04	0.1083	0.00031
602.07	0.10845	0.00025
602.12	0.10362	0.00051
602.16	0.10626	0.00031
602.19	0.10382	0.00041
602.24	0.10377	0.00033
602.28	0.1083	0.00031
602.31	0.10738	0.00052
602.36	0.10733	0.00056
602.4	0.11237	0.0005
602.43	0.10835	0.00033
602.48	0.11222	0.00015
602.52	0.11013	0.00038
602.56	0.10723	0.00036
602.6	0.10652	0.0004
602.64	0.10637	0.00025
602.68	0.11105	0.00025
602.72	0.10637	0.00034
602.76	0.10815	0.00036
602.8	0.10932	0.00038
602.84	0.10464	0.00051
602.88	0.10764	0.00048
602.92	0.10555	0.00059
602.95	0.1055	0.00051
603.0	0.1056	0.00048
603.04	0.10835	0.0004
603.07	0.11482	0.00032
603.12	0.10738	0.00034
603.16	0.11008	0.00033
603.19	0.10749	0.00041
603.24	0.10759	0.00038
603.28	0.10071	0.0004
603.31	0.10458	0.00036
603.36	0.11416	0.00023
603.4	0.11416	0.00023
603.43	0.111	0.00047
603.48	0.1056	0.00036
603.52	0.10555	0.00055
603.56	0.10952	0.00041
603.6	0.11304	0.00047
603.64	0.11192	0.00046
603.68	0.10448	0.00033
603.72	0.10362	0.00051
603.76	0.11273	0.00027
603.8	0.11034	0.00044
603.84	0.11018	0.00042
603.88	0.11619	0.00056
603.92	0.11604	0.00041
603.95	0.11502	0.00041
604.0	0.10952	0.00034
604.04	0.11105	0.00047
604.07	0.11136	0.00038
604.12	0.11125	0.00039
604.16	0.11288	0.00031
604.19	0.10917	0.00053
604.24	0.11024	0.00039
604.28	0.111	0.00034
604.31	0.11314	0.00056
604.36	0.10906	0.0004
604.4	0.11604	0.00052
604.43	0.11594	0.00031
604.48	0.11136	0.00064
604.52	0.11237	0.00031
604.56	0.11125	0.00051
604.6	0.10458	0.00027
604.64	0.11217	0.0005
604.68	0.10927	0.00036
604.72	0.10912	0.00044
604.76	0.11492	0.00044
604.8	0.11105	0.00034
604.84	0.10362	0.00039
604.88	0.11186	0.00044
604.92	0.10942	0.00034
604.95	0.11405	0.00041
605.0	0.11416	0.00023
605.04	0.11024	0.0006
605.07	0.11029	0.00036
605.12	0.10744	0.00047
605.16	0.10642	0.00025
605.19	0.10525	0.00031
605.24	0.11074	0.00051
605.28	0.111	0.00047
605.31	0.11115	0.00044
605.36	0.10367	0.00036
605.4	0.10652	0.00023
605.43	0.10738	0.00065
605.48	0.10932	0.0002
605.52	0.10545	0.00034
605.56	0.11018	0.00027
605.6	0.11008	0.0004
605.64	0.10703	0.0006
605.68	0.11329	0.00046
605.72	0.10723	0.00058
605.76	0.11202	0.00025
605.8	0.11385	0.00042
605.84	0.11298	0.00065
605.88	0.11232	0.00027
605.92	0.11192	0.0004
605.95	0.10947	0.00065
606.0	0.10749	0.00065
606.04	0.10937	0.00065
606.07	0.11507	0.00034
606.12	0.111	0.00041
606.16	0.11375	0.00036
606.19	0.11405	0.00047
606.24	0.1111	0.00051
606.28	0.10927	0.00042
606.31	0.10438	0.00025
606.36	0.11217	0.0005
606.4	0.1081	0.00031
606.43	0.11207	0.00034
606.48	0.11197	0.00025
606.52	0.11288	0.00031
606.56	0.11298	0.00041
606.6	0.10825	0.00042
606.64	0.11517	0.00056
606.68	0.11008	0.00056
606.72	0.11293	0.0004
606.76	0.11115	0.00038
606.8	0.11095	0.00047
606.84	0.11217	0.0002
606.88	0.11212	0.0004
606.92	0.1139	0.0005
606.95	0.11502	0.00034
607.0	0.11416	0.00023
607.04	0.11599	0.0004
607.07	0.11604	0.00034
607.12	0.11314	0.00033
607.16	0.11293	0.00046
607.19	0.1084	0.00041
607.24	0.11512	0.00052
607.28	0.11212	0.00033
607.31	0.1139	0.00044
607.36	0.11405	0.00034
607.4	0.11792	0.00048
607.43	0.1139	0.00055
607.48	0.11874	0.00051
607.52	0.114	0.00034
607.56	0.1112	0.00066
607.6	0.11288	0.00031
607.64	0.11207	0.00025
607.68	0.11222	0.00036
607.72	0.1224	0.00027
607.76	0.12133	0.00044
607.8	0.10652	0.00033
607.84	0.11411	0.00047
607.88	0.11772	0.00056
607.92	0.11385	0.00036
607.95	0.11411	0.00034
608.0	0.11039	0.00046
608.04	0.11609	0.00025
608.07	0.11589	0.00042
608.12	0.11706	0.00047
608.16	0.12449	0.00032
608.19	0.11421	0.0002
608.24	0.11492	0.00031
608.28	0.11482	0.00051
608.31	0.11202	0.00041
608.36	0.1166	0.00034
608.4	0.11899	0.00044
608.43	0.11803	0.0004
608.48	0.12235	0.00031
608.52	0.11523	0.0002
608.56	0.11487	0.00042
608.6	0.11701	0.0004
608.64	0.11482	0.00046
608.68	0.11502	0.00047
608.72	0.11767	0.00057
608.76	0.12174	0.00041
608.8	0.12617	0.0004
608.84	0.12643	0.00044
608.88	0.1139	0.0005
608.92	0.11298	0.00034
608.95	0.11283	0.00042
609.0	0.11482	0.00032
609.04	0.11507	0.00034
609.07	0.11813	0.00041
609.12	0.11497	0.0004
609.16	0.11461	0.00052
609.19	0.12811	0.00042
609.24	0.11512	0.00061
609.28	0.12072	0.00025
609.31	0.11869	0.00034
609.36	0.12235	0.00071
609.4	0.1168	0.00036
609.43	0.11685	0.00032
609.48	0.11696	0.00044
609.52	0.12067	0.00052
609.56	0.12439	0.00044
609.6	0.12067	0.00025
609.64	0.12077	0.00046
609.68	0.11619	0.0004
609.72	0.11589	0.00048
609.76	0.11777	0.0005
609.8	0.11971	0.00034
609.84	0.1195	0.00038
609.88	0.11955	0.0004
609.92	0.11298	0.00034
609.95	0.11803	0.0006
610.0	0.12526	0.00041
610.04	0.12531	0.00041
610.07	0.11273	0.00042
610.12	0.12077	0.00046
610.16	0.11685	1.38778e-17
610.19	0.12368	0.00034
610.24	0.11217	0.00038
610.28	0.12164	0.00034
610.31	0.12164	0.00052
610.36	0.12444	0.00048
610.4	0.12062	0.00047
610.43	0.12251	0.00015
610.48	0.12164	0.00034
610.52	0.12067	0.00025
610.56	0.11039	0.0004
610.6	0.11421	0.00031
610.64	0.11416	0.00023
610.68	0.12531	0.00065
610.72	0.12352	0.00036
610.76	0.11772	0.0004
610.8	0.11971	0.00034
610.84	0.11945	0.00036
610.88	0.11502	0.00034
610.92	0.11492	0.00031
610.95	0.11874	0.00033
611.0	0.11594	0.00059
611.04	0.12632	0.00034
611.07	0.12444	0.00048
611.12	0.11879	0.00044
611.16	0.13198	0.00046
611.19	0.13228	0.00046
611.24	0.12734	0.00047
611.28	0.12912	0.00048
611.31	0.13391	0.00034
611.36	0.1195	0.00031
611.4	0.12643	0.0005
611.43	0.12897	0.00044
611.48	0.12719	0.00023
611.52	0.12755	0.00046
611.56	0.12256	0.00031
611.6	0.13014	0.00048
611.64	0.12088	0.00027
611.68	0.12561	0.00031
611.72	0.12251	0.00027
611.76	0.12673	0.00034
611.8	0.12617	0.00046
611.84	0.12419	0.00034
611.88	0.12149	0.00042
611.92	0.12541	0.00044
611.95	0.13218	0.00036
612.0	0.1252	0.00034
612.04	0.12709	0.00058
612.07	0.12831	0.00041
612.12	0.12826	0.00041
612.16	0.12699	0.00036
612.19	0.1252	0.00034
612.24	0.13019	0.00044
612.28	0.13131	0.00034
612.31	0.13396	0.00034
612.36	0.12617	0.00046
612.4	0.12602	0.00032
612.43	0.12719	0.0004
612.48	0.12332	0.00023
612.52	0.13371	0.00042
612.56	0.12999	0.00044
612.6	0.12648	0.00048
612.64	0.13101	0.00031
612.68	0.13111	0.00051
612.72	0.12836	0.00041
612.76	0.12734	0.00034
612.8	0.12536	0.00033
612.84	0.12821	0.0006
612.88	0.12724	0.00047
612.92	0.13284	0.00047
612.95	0.13091	0.00034
613.0	0.13101	0.00038
613.04	0.12821	0.00051
613.07	0.13381	0.00056
613.12	0.12806	0.00023
613.16	0.12821	0.00033
613.19	0.13478	0.00031
613.24	0.12352	0.00053
613.28	0.12342	0.00027
613.31	0.13126	0.00051
613.36	0.13116	0.00048
613.4	0.1308	0.00034
613.43	0.13014	0.00053
613.48	0.12739	0.0004
613.52	0.12887	0.00041
613.56	0.12912	0.00015
613.6	0.13722	0.00039
613.64	0.12632	0.00041
613.68	0.13208	0.00066
613.72	0.13386	0.00041
613.76	0.12918	0.00038
613.8	0.1359	0.00034
613.84	0.13208	0.00053
613.88	0.13198	0.00056
613.92	0.13635	0.00051
613.95	0.13198	0.0004
614.0	0.13299	0.0004
614.04	0.13294	0.00041
614.07	0.12984	0.00034
614.12	0.13391	0.00025
614.16	0.13386	0.00034
614.19	0.13299	0.00033
614.24	0.13865	0.0005
614.28	0.13595	0.00047
614.31	0.13697	0.00052
614.36	0.12943	0.0004
614.4	0.13859	0.0006
614.43	0.13457	0.0005
614.48	0.13467	0.00051
614.52	0.13355	0.0002
614.56	0.14017	0.00031
614.6	0.14043	0.00023
614.64	0.14134	0.00036
614.68	0.14043	0.00046
614.72	0.14445	0.00038
614.76	0.14414	0.00052
614.8	0.13768	0.00027
614.84	0.13697	0.00025
614.88	0.14206	0.00047
614.92	0.1387	0.00048
614.95	0.14119	0.0005
615.0	0.14903	0.00038
615.04	0.14893	0.00032
615.07	0.13361	0.00036
615.12	0.14888	0.00048
615.16	0.14689	0.00032
615.19	0.14109	0.00052
615.24	0.14043	0.00046
615.28	0.14404	0.00041
615.31	0.15545	0.00038
615.36	0.1554	0.00033
615.4	0.15112	0.0004
615.43	0.14501	0.00033
615.48	0.14501	0.0004
615.52	0.147	0.00044
615.56	0.14781	0.00055
615.6	0.14786	0.00048
615.64	0.14796	0.00048
615.68	0.14521	0.0004
615.72	0.1554	0.0004
615.76	0.14338	0.0007
615.8	0.14705	0.00023
615.84	0.13661	0.00031
615.88	0.14404	0.00025
615.92	0.1471	0.00034
615.95	0.1471	0.00041
616.0	0.14588	0.00046
616.04	0.14516	0.00034
616.07	0.14323	0.00038
616.12	0.13737	0.00033
616.16	0.14058	0.00034
616.19	0.14211	0.00057
616.24	0.14226	0.00042
616.28	0.14043	0.0004
616.31	0.1443	0.00036
616.36	0.15097	2.77556e-17
616.4	0.14598	0.0005
616.43	0.14613	0.00041
616.48	0.13564	0.00042
616.52	0.13564	0.00048
616.56	0.14974	0.00041
616.6	0.14506	0.00047
616.64	0.13931	0.00058
616.68	0.14409	0.00034
616.72	0.14236	0.00042
616.76	0.13941	0.00051
616.8	0.13844	0.00057
616.84	0.13865	0.0002
616.88	0.14145	0.00051
616.92	0.13859	0.00033
616.95	0.14038	0.0002
617.0	0.14964	0.00025
617.04	0.14526	0.00044
617.07	0.14588	0.00046
617.12	0.14618	0.00076
617.16	0.14053	0.00047
617.19	0.14435	0.00039
617.24	0.15102	0.00036
617.28	0.1387	0.00048
617.31	0.14812	0.00052
617.36	0.14827	0.00046
617.4	0.14801	0.0005
617.43	0.15183	0.00033
617.48	0.14328	0.00042
617.52	0.14506	0.00025
617.56	0.13844	0.00041
617.6	0.14328	0.00015
617.64	0.15626	0.00041
617.68	0.1498	0.0004
617.72	0.14964	0.00041
617.76	0.14043	0.00033
617.8	0.13946	0.00025
617.84	0.14292	0.00038
617.88	0.14226	0.00036
617.92	0.13865	0.0002
617.95	0.15097	0.00051
618.0	0.15107	0.00038
618.04	0.14822	0.00061
618.07	0.14236	0.00053
618.12	0.14903	0.00031
618.16	0.14613	0.00025
618.19	0.14694	0.00036
618.24	0.14308	0.00025
618.28	0.14832	0.00031
618.31	0.14812	0.00041
618.36	0.14705	0.00051
618.4	0.1473	0.0005
618.43	0.15102	0.00048
618.48	0.16146	0.00041
618.52	0.14908	0.00046
618.56	0.15061	0.00046
618.6	0.15107	0.00038
618.64	0.15081	0.0004
618.68	0.15748	0.0005
618.72	0.14985	0.0005
618.76	0.1501	0.0004
618.8	0.14526	0.00038
618.84	0.15188	0.00038
618.88	0.15188	0.00038
618.92	0.14694	0.00015
618.95	0.15275	0.00041
619.0	0.14985	0.00031
619.04	0.15199	0.00051
619.07	0.15367	0.0004
619.12	0.15453	0.00032
619.16	0.15423	0.00052
619.19	0.15468	0.00051
619.24	0.15535	0.00034
619.28	0.1556	0.00036
619.31	0.15361	0.0005
619.36	0.15199	0.00051
619.4	0.15473	0.00034
619.43	0.14812	0.00041
619.48	0.14832	0.00031
619.52	0.1614	0.00025
619.56	0.14995	0.00032
619.6	0.15743	0.0004
619.64	0.15937	0.00025
619.68	0.15438	0.00046
619.72	0.1555	0.00042
619.76	0.1555	0.00042
619.8	0.15158	0.00055
619.84	0.16594	0.00034
619.88	0.16415	0.00058
619.92	0.16812	0.00046
619.95	0.16792	0.00033
620.0	0.16212	0.00036
620.04	0.17159	0.00052
620.07	0.17128	0.00036
620.12	0.18116	0.00033
620.16	0.17714	0.00034
620.19	0.17418	0.00034
620.24	0.1832	0.00033
620.28	0.17999	0.00039
620.31	0.18584	0.00034
620.36	0.18589	0.00034
620.4	0.19149	0.00047
620.43	0.18472	0.00046
620.48	0.19231	0.00031
620.52	0.19358	0.00046
620.56	0.20361	0.00034
620.6	0.19541	0.00033
620.64	0.19704	0.00034
620.68	0.19704	0.00041
620.72	0.20107	0.00034
