Waveleght	Intensity	Error
625.33	0.17632	0.00044
625.38	0.1752	0.00041
625.42	0.16706	0.00041
625.45	0.16695	0.00069
625.5	0.17551	0.00038
625.54	0.1694	0.00038
625.57	0.18752	0.00038
625.62	0.18197	0.00036
625.66	0.16884	0.00036
625.69	0.17332	0.00027
625.74	0.17444	0.00042
625.78	0.17454	0.00051
625.81	0.18192	0.00059
625.85	0.16899	0.00041
625.9	0.16614	0.00044
625.93	0.17215	0.00047
625.97	0.17042	0.00031
626.02	0.17138	0.00027
626.06	0.17149	0.00046
626.09	0.16777	0.00032
626.14	0.16777	0.00023
626.18	0.167	0.00047
626.21	0.17123	0.0005
626.26	0.16196	0.00061
626.3	0.16767	0.0002
626.33	0.16782	0.00036
626.38	0.17052	0.00047
626.42	0.15555	0.00046
626.45	0.17327	0.00044
626.5	0.17052	0.00057
626.54	0.17332	0.00042
626.57	0.17449	0.00044
626.62	0.17154	0.00041
626.66	0.17133	0.00032
626.69	0.17815	0.00047
626.74	0.1668	0.00048
626.78	0.17042	0.0005
626.81	0.16675	0.00046
626.85	0.16507	0.0006
626.9	0.16868	0.00038
626.93	0.16879	0.00032
626.97	0.1723	0.00036
627.02	0.17556	0.00023
627.06	0.17449	0.00031
627.09	0.16507	0.00023
627.14	0.17128	0.00036
627.18	0.1752	0.00065
627.21	0.1753	0.00055
627.26	0.17143	0.0005
627.3	0.17658	0.0004
627.33	0.16431	0.00038
627.38	0.1696	0.00034
627.42	0.17739	0.00036
627.45	0.17408	0.00034
627.5	0.17576	0.00033
627.54	0.17535	0.00036
627.57	0.17434	0.00053
627.62	0.1725	0.00056
627.66	0.17133	0.00039
627.69	0.17143	0.0005
627.74	0.17062	0.00047
627.78	0.16232	0.00046
627.81	0.16207	0.00031
627.85	0.17154	0.00052
627.9	0.16919	0.00031
627.93	0.17159	0.00034
627.97	0.16588	0.00033
628.02	0.16237	0.00041
628.06	0.1723	0.00042
628.09	0.16777	0.00032
628.14	0.16767	0.0002
628.18	0.1695	0.00025
628.21	0.1697	0.00031
628.26	0.17734	0.00044
628.3	0.17541	0.00056
628.33	0.16308	0.00044
628.38	0.17164	0.00047
628.42	0.17143	0.00055
628.45	0.16772	0.00053
628.5	0.16135	0.00041
628.54	0.15998	0.00046
628.57	0.16604	0.00034
628.62	0.16135	0.00025
628.66	0.164	0.00061
628.69	0.1642	0.00056
628.74	0.15809	0.00056
628.78	0.16609	0.00033
628.81	0.15641	0.00046
628.85	0.15367	0.00033
628.9	0.14908	0.00033
628.93	0.15927	0.00051
628.97	0.1499	0.00036
629.02	0.14974	0.00041
629.06	0.1499	0.00036
629.09	0.1443	0.00042
629.14	0.14318	0.00056
629.18	0.13859	0.0004
629.21	0.13941	0.00046
629.26	0.13386	0.00034
629.3	0.13391	0.00041
629.33	0.12724	0.00025
629.38	0.13218	0.00042
629.42	0.12358	0.0005
629.45	0.12729	0.00034
629.5	0.11696	0.00044
629.54	0.11298	0.00057
629.57	0.1083	0.00038
629.62	0.1082	0.00023
629.66	0.11782	0.00053
629.69	0.10937	0.00033
629.74	0.10937	0.00046
629.78	0.10825	0.00027
629.81	0.1053	0.00033
629.85	0.10637	0.00025
629.9	0.10647	0.00047
629.93	0.09919	0.0004
629.97	0.10097	0.00038
630.02	0.10275	0.00023
630.06	0.10642	0.00025
630.09	0.09797	0.00042
630.14	0.09909	0.00048
630.18	0.09883	0.00047
630.21	0.09914	0.00038
630.26	0.09557	0.00038
630.3	0.10458	0.00042
630.33	0.09328	0.00033
630.38	0.09323	0.00052
630.42	0.09613	0.00033
630.45	0.09674	0.00025
630.5	0.09695	0.00042
630.54	0.09618	0.00025
630.57	0.09797	0.00042
630.62	0.10183	0.00047
630.66	0.0973	0.00047
630.69	0.09603	0.00042
630.74	0.09903	0.00039
630.78	0.09888	0.00033
630.81	0.09608	0.00038
630.85	0.09878	0.00061
630.9	0.09802	0.00072
630.93	0.10092	0.00056
630.97	0.0973	0.00041
631.02	0.09705	0.00015
631.06	0.09695	0.00048
631.09	0.09328	0.00056
631.14	0.09252	0.00044
631.18	0.09399	0.00036
631.21	0.09522	0.00057
631.26	0.09328	0.0004
631.3	0.09776	0.00034
631.33	0.09236	0.00042
631.38	0.09231	0.0005
631.42	0.09807	0.00027
631.45	0.09898	0.00042
631.5	0.0971	0.00031
631.54	0.09888	0.0004
631.57	0.09333	0.0005
631.62	0.10178	0.00025
631.66	0.10163	0.00042
631.69	0.10178	0.00061
631.74	0.10555	0.00059
631.78	0.10265	0.00036
631.81	0.10061	0.00036
631.85	0.10158	0.00046
631.9	0.09893	0.00064
631.93	0.09639	0.00031
631.97	0.09603	0.00015
632.02	0.10845	0.00025
632.06	0.10453	0.00031
632.09	0.10932	0.00044
632.14	0.11202	0.00025
632.18	0.11202	0.00025
632.21	0.11125	0.0006
632.26	0.111	0.00025
632.3	0.1053	0.00051
632.33	0.11013	0.00038
632.38	0.11584	0.00032
632.42	0.11217	0.00038
632.45	0.11115	0.00038
632.5	0.11426	0.00015
632.54	0.11431	0.00068
632.57	0.11502	0.00061
632.62	0.11334	0.00036
632.66	0.10998	0.00047
632.69	0.11767	0.00047
632.74	0.12154	0.00044
632.78	0.1138	0.00056
632.81	0.12159	0.00056
632.85	0.12174	0.00061
632.9	0.11869	0.00025
632.93	0.11675	0.00055
632.97	0.11482	0.00039
633.02	0.11782	0.00048
633.06	0.11314	0.00033
633.09	0.11614	0.00047
633.14	0.11584	0.00051
633.18	0.11293	0.0004
633.21	0.11609	0.00047
633.26	0.09791	0.00044
633.3	0.1081	0.00038
633.33	0.11298	0.00034
633.38	0.10647	0.00034
633.42	0.10637	0.00041
633.45	0.10662	0.00036
633.5	0.10448	0.00023
633.54	0.10392	0.00034
633.57	0.10071	0.00033
633.62	0.1083	0.00038
633.66	0.10301	0.00031
633.69	0.1081	0.00031
633.74	0.1082	0.00046
633.78	0.10626	0.00059
633.81	0.10377	0.00023
633.85	0.09929	0.00047
633.9	0.10005	0.00039
633.93	0.09888	0.00023
633.97	0.09695	0.00042
634.02	0.097	0.00039
634.06	0.10372	0.0002
634.09	0.09318	0.00025
634.14	0.1001	0.00042
634.18	0.0913	0.00044
634.21	0.0942	0.00034
634.26	0.0941	0.00033
634.3	0.10021	0.00023
634.33	0.10005	0.00023
634.38	0.09685	0.00046
634.42	0.09547	0.00039
634.45	0.09827	0.00034
634.5	0.0914	0.00046
634.54	0.09405	0.00038
634.57	0.09893	0.0005
634.62	0.09934	0.00057
634.66	0.09603	0.00027
634.69	0.10071	0.0004
634.74	0.09308	0.00046
634.78	0.09593	0.00042
634.81	0.09216	0.00061
634.85	0.10194	0.00056
634.9	0.10163	0.00036
634.93	0.09685	0.00051
634.97	0.09435	0.00044
635.02	0.09608	0.00031
635.06	0.097	0.00023
635.09	0.1	0.00036
635.14	0.1	0.00027
635.18	0.10087	0.00047
635.21	0.10087	0.00047
635.26	0.09328	0.00033
635.3	0.09705	0.00048
635.33	0.10051	0.00027
635.38	0.09639	0.0005
635.42	0.09323	0.00034
635.45	0.09491	0.00036
635.5	0.09496	0.00032
635.54	0.09527	0.00041
635.57	0.09812	0.00031
635.62	0.09898	0.00048
635.66	0.0971	0.00044
635.69	0.09791	0.00055
635.74	0.10005	0.00023
635.78	0.09791	0.00031
635.81	0.09791	0.00038
635.85	0.1027	0.00031
635.9	0.10372	0.00031
635.93	0.09812	0.00044
635.97	0.09338	0.00036
636.02	0.0942	0.00041
636.06	0.09323	0.00057
636.09	0.09313	0.00057
636.14	0.09608	0.00044
636.18	0.10204	0.00048
636.21	0.1001	0.00036
636.26	0.09893	0.00044
636.3	0.0943	0.00033
636.33	0.09155	0.00033
636.38	0.09119	0.00057
636.42	0.09038	0.00068
636.45	0.0941	0.00033
636.5	0.09679	0.00047
636.54	0.09618	0.00041
636.57	0.09634	0.00033
636.62	0.09715	0.0004
636.66	0.1	0.00048
636.69	0.09995	0.0002
636.74	0.09216	0.00047
636.78	0.08773	0.00038
636.81	0.09522	0.00052
636.85	0.09629	0.00025
636.9	0.09797	0.00042
636.93	0.10204	0.00042
636.97	0.10194	0.0004
637.02	0.1001	0.00027
637.06	0.09532	0.00046
637.09	0.09888	0.00033
637.14	0.08967	0.00041
637.18	0.0972	0.00052
637.21	0.09506	0.00044
637.26	0.09496	0.00032
637.3	0.10087	0.00025
637.33	0.08946	0.0005
637.38	0.0945	0.00036
637.42	0.09298	0.00042
637.45	0.10199	0.0005
637.5	0.09038	0.00039
637.54	0.10285	0.00052
637.57	0.10245	0.00046
637.62	0.09878	0.00034
637.66	0.09812	0.00038
637.69	0.09695	0.00048
637.74	0.09527	0.00034
637.78	0.09878	0.00025
637.81	0.10087	0.00041
637.85	0.10107	0.00039
637.9	0.09797	0.00053
637.93	0.0971	0.00055
637.97	0.09328	0.00065
638.02	0.10372	0.00044
638.06	0.10082	0.00034
638.09	0.09878	0.00041
638.14	0.10545	0.00034
638.18	0.10535	0.00047
638.21	0.09888	0.00033
638.26	0.0971	0.00055
638.3	0.10087	0.00041
638.33	0.10173	0.00056
638.38	0.0969	0.00031
638.42	0.09812	0.00038
638.45	0.09797	0.00048
638.5	0.10387	0.00052
638.54	0.10626	0.00031
638.57	0.09975	0.00052
638.62	0.10738	0.00047
638.66	0.10744	0.00047
638.69	0.10642	0.00025
638.74	0.10637	0.00025
638.78	0.10362	0.00046
638.81	0.11013	0.00044
638.85	0.10922	0.00032
638.9	0.11298	0.00047
638.93	0.11202	0.00041
638.97	0.11696	0.00031
639.02	0.11492	0.00059
639.06	0.11487	0.00042
639.09	0.11599	0.0004
639.14	0.11492	0.00044
639.18	0.11421	0.0005
639.21	0.12174	0.00052
639.26	0.12444	0.00027
639.3	0.12918	0.00031
639.33	0.12907	0.00039
639.38	0.13213	0.00039
639.42	0.13213	0.00032
639.45	0.13284	0.00041
639.5	0.13177	0.00046
639.54	0.13564	0.00027
639.57	0.14231	0.00046
639.62	0.14068	0.00044
639.66	0.14033	0.00042
639.69	0.14328	0.00036
639.74	0.14043	0.00046
639.78	0.14812	0.00047
639.81	0.14343	0.00031
639.85	0.16039	0.00041
639.9	0.15723	0.00023
639.93	0.15733	0.00034
639.97	0.15458	0.00036
640.02	0.1613	0.00046
640.06	0.16507	0.0006
640.09	0.16212	0.00062
640.14	0.16889	0.00031
640.18	0.16314	0.00036
640.21	0.16298	0.00034
640.26	0.16588	0.00023
640.3	0.17072	0.00044
640.33	0.18116	0.0006
640.38	0.18182	0.00034
640.42	0.18279	0.00041
640.45	0.18014	0.0004
640.5	0.19236	0.00046
640.54	0.19231	0.00044
640.57	0.18849	0.0004
640.62	0.18869	0.00036
640.66	0.19704	0.00052
640.69	0.19511	0.0004
640.74	0.20066	0.00057
640.78	0.19903	0.00034
640.81	0.19893	0.00044
640.85	0.20152	0.0004
640.9	0.21782	0.00033
640.93	0.20463	0.00047
640.97	0.21395	0.00023
641.02	0.22118	0.00048
641.06	0.2223	0.00036
641.09	0.22235	0.00031
641.14	0.23401	0.00058
641.18	0.23553	0.00053
641.21	0.24388	0.00034
641.26	0.25733	0.00048
641.3	0.27336	0.00052
641.33	0.26695	0.0002
641.38	0.28024	0.00036
641.42	0.27973	0.00036
641.45	0.28721	0.00034
641.5	0.29678	0.00025
641.54	0.30911	0.00047
641.57	0.29409	0.00062
641.62	0.29867	0.00048
641.66	0.31211	0.00025
641.69	0.31226	0.00038
641.74	0.31206	0.00034
641.78	0.29225	0.00034
641.81	0.30524	0.00051
641.85	0.31308	0.00034
641.9	0.31639	0.00027
641.93	0.30921	0.00038
641.97	0.3006	0.00048
642.02	0.3005	0.0004
642.06	0.3034	0.00034
642.09	0.30345	0.00041
642.14	0.30829	0.00032
642.18	0.28558	0.00034
642.21	0.29139	0.0005
642.26	0.27983	0.00042
642.3	0.28014	0.00046
642.33	0.27723	0.00023
642.38	0.27708	0.00033
642.42	0.25585	0.00046
642.45	0.25717	0.00041
642.5	0.25529	0.00042
642.54	0.24709	0.00031
642.57	0.24704	0.00051
642.62	0.24414	0.00032
642.66	0.24409	0.00042
642.69	0.23762	0.00031
642.74	0.22622	0.00031
642.78	0.22067	0.00042
642.81	0.20835	0.00033
642.85	0.2055	0.00036
642.9	0.20544	0.00032
642.93	0.21502	0.00031
642.97	0.21318	0.00038
643.02	0.21293	0.0004
643.06	0.20921	0.00047
643.09	0.20183	0.00027
643.14	0.20916	0.00046
643.18	0.20926	0.00034
643.21	0.20529	0.00051
643.26	0.20534	0.0005
643.3	0.20102	0.00051
643.33	0.21232	0.00034
643.38	0.19725	0.00048
643.42	0.20178	0.00031
643.45	0.19501	0.00034
643.5	0.19536	0.00038
643.54	0.19979	0.00048
643.57	0.19536	0.00044
643.62	0.19801	0.00041
643.66	0.20453	0.00038
643.69	0.20081	0.00048
643.74	0.19699	0.00047
643.78	0.1972	0.00044
643.81	0.19903	0.00041
643.85	0.19725	0.00036
643.9	0.19068	0.00039
643.93	0.20193	0.00027
643.97	0.18584	0.00025
644.02	0.19699	0.00052
644.06	0.19725	0.00036
644.09	0.19821	0.00031
644.14	0.20234	0.00048
644.18	0.19017	0.00039
644.21	0.19811	0.00052
644.26	0.20275	0.00033
644.3	0.20056	0.00061
644.33	0.20926	0.00047
644.38	0.20931	0.00052
644.42	0.20071	0.0004
644.45	0.20005	0.00047
644.5	0.20356	0.0004
644.54	0.20443	0.00032
644.57	0.20921	0.00047
644.62	0.20631	0.00033
644.66	0.20626	0.00025
644.69	0.2058	0.0004
644.74	0.20636	0.00031
644.78	0.21084	0.00041
644.81	0.22525	0.00053
644.85	0.22352	0.00047
644.9	0.22444	0.00046
644.93	0.22433	0.00053
644.97	0.2168	0.00046
645.02	0.23467	0.00041
645.06	0.24714	0.00042
645.09	0.24119	0.00044
645.14	0.24882	0.00044
645.18	0.24882	0.00031
645.21	0.26181	0.00046
645.26	0.26242	0.00027
645.3	0.27815	0.0005
645.33	0.27143	0.00041
645.38	0.26939	0.00025
645.42	0.27224	0.00031
645.45	0.28752	0.00038
645.5	0.29699	0.0005
645.54	0.29673	0.0004
645.57	0.29297	0.00036
645.62	0.31771	0.00034
645.66	0.30651	0.00041
645.69	0.30361	0.0002
645.74	0.30641	0.00033
645.78	0.31465	0.00047
645.81	0.30651	0.00025
645.85	0.30646	0.00047
645.9	0.30916	0.00046
645.93	0.31297	0.0002
645.97	0.30834	0.00048
646.02	0.3089	0.00059
646.06	0.30732	0.00048
646.09	0.2919	0.00038
646.14	0.29195	0.00027
646.18	0.30804	0.00025
646.21	0.28645	0.00058
646.26	0.28655	0.00046
646.3	0.28655	0.00033
646.33	0.28563	0.00041
646.38	0.2697	0.00038
646.42	0.2697	0.00044
646.45	0.25544	0.00044
646.5	0.26094	0.00046
646.54	0.24383	0.00025
646.57	0.2422	0.00038
646.62	0.23085	0.00036
646.66	0.231	0.00038
646.69	0.22057	0.00033
646.74	0.22067	0.00053
646.78	0.21792	0.00047
646.81	0.21797	0.00047
646.85	0.21105	0.00039
646.9	0.21497	0.00023
646.93	0.2114	0.00051
646.97	0.19816	0.00033
647.02	0.19806	0.00034
647.06	0.20168	0.00025
647.09	0.20183	0.00042
647.14	0.19536	0.00038
647.18	0.2001	0.00034
647.21	0.19699	0.00034
647.26	0.1865	0.00031
647.3	0.1863	0.00025
647.33	0.19424	0.00032
647.38	0.20086	0.00039
647.42	0.19155	0.00046
647.45	0.18783	0.00047
647.5	0.19521	0.00042
647.54	0.19246	0.00025
647.57	0.18401	0.00036
647.62	0.18386	0.00047
647.66	0.19526	0.00051
647.69	0.19516	0.00038
647.74	0.19613	0.0004
647.78	0.19241	0.00034
647.81	0.18493	0.00046
647.85	0.19241	0.00052
647.9	0.19236	0.00046
647.93	0.18406	0.00056
647.97	0.19134	0.0004
648.02	0.18757	0.00027
648.06	0.18508	0.00046
648.09	0.18482	0.00047
648.14	0.19241	0.00025
648.18	0.1781	0.00046
648.21	0.1781	0.00023
648.26	0.18457	0.00039
648.3	0.17826	0.00047
648.33	0.18656	0.00036
648.38	0.17841	0.00036
648.42	0.18029	0.00052
648.45	0.17541	0.00046
648.5	0.17535	0.00048
648.54	0.18752	0.00044
648.57	0.19048	0.00025
648.62	0.19323	0.00051
648.66	0.18401	0.00048
648.69	0.18482	0.00047
648.74	0.18386	0.00034
648.78	0.18396	0.00031
648.81	0.18401	0.00036
648.85	0.17912	0.00033
648.9	0.19715	0.00051
648.93	0.19221	0.00032
648.97	0.18309	0.00062
649.02	0.18488	0.00047
649.06	0.19888	0.00036
649.09	0.19883	0.00056
649.14	0.18569	0.0005
649.18	0.18126	0.00041
649.21	0.1888	0.0004
649.26	0.19053	0.00046
649.3	0.18834	0.00052
649.33	0.17734	0.00031
649.38	0.17739	0.00015
649.42	0.18279	0.00025
649.45	0.18778	0.00033
649.5	0.18299	0.00053
649.54	0.18309	0.00058
649.57	0.18966	0.00064
649.62	0.17709	0.00023
649.66	0.18757	0.00027
649.69	0.18737	0.00047
649.74	0.18386	0.00047
649.78	0.18778	0.0004
649.81	0.19032	0.00046
649.85	0.18269	0.00046
649.9	0.18752	0.00031
649.93	0.19587	0.0005
649.97	0.19618	0.00038
650.02	0.18269	0.00023
650.06	0.19806	0.00041
650.09	0.1893	0.00033
650.14	0.19027	0.00038
650.18	0.19323	0.00039
650.21	0.18376	0.00047
650.26	0.18381	0.00034
650.3	0.18569	0.00038
650.33	0.19516	0.00038
650.38	0.19058	0.0005
650.42	0.18864	0.00039
650.45	0.19735	0.00027
650.5	0.18309	0.00042
650.54	0.19618	0.00044
650.57	0.19582	0.00036
650.62	0.19251	0.00047
650.66	0.19511	0.00051
650.69	0.18951	0.00046
650.74	0.20056	0.00025
650.78	0.19419	0.00027
650.81	0.19343	0.00052
650.85	0.19312	0.00044
650.9	0.19526	0.00039
650.93	0.19053	0.00023
650.97	0.19872	0.00044
651.02	0.20117	0.00052
651.06	0.20076	0.00038
651.09	0.19872	0.00044
651.14	0.19867	0.0004
651.18	0.19597	0.00047
651.21	0.214	0.00044
651.26	0.21013	0.00055
651.3	0.21771	0.00015
651.33	0.22036	0.00023
651.38	0.2112	0.0004
651.42	0.21497	0.00033
651.45	0.21476	0.00023
651.5	0.21201	0.00053
651.54	0.2255	0.00047
651.57	0.21975	0.00048
651.62	0.22912	0.00047
651.66	0.22484	0.00042
651.69	0.21853	0.0004
651.74	0.21858	0.00038
651.78	0.22973	0.00051
651.81	0.22057	0.00046
651.85	0.23762	0.0005
651.9	0.2253	0.00039
651.93	0.21965	0.00048
651.97	0.22886	0.00039
652.02	0.22255	0.00034
652.06	0.22225	0.00032
652.09	0.22622	0.0005
652.14	0.22362	0.00033
652.18	0.22871	0.00046
652.21	0.21863	0.00036
652.26	0.21675	0.00031
652.3	0.21797	0.00057
652.33	0.21771	0.00027
652.38	0.22143	0.00041
652.42	0.2141	0.00032
652.45	0.21115	0.00055
652.5	0.20264	0.00025
652.54	0.20748	0.00056
652.57	0.20112	0.00041
652.62	0.20117	0.00041
652.66	0.19684	0.00027
652.69	0.20015	0.00047
652.74	0.1892	0.00042
652.78	0.20076	0.0005
652.81	0.19995	0.00038
652.85	0.19424	0.00032
652.9	0.18264	0.00031
652.93	0.18269	0.00033
652.97	0.19618	0.00031
653.02	0.18304	0.00032
653.06	0.18895	0.00047
653.09	0.18202	0.00039
653.14	0.18391	0.0006
653.18	0.18849	0.0004
653.21	0.18844	0.00034
653.26	0.18752	0.0002
653.3	0.17525	0.0004
653.33	0.18391	0.0004
653.38	0.18488	0.00052
653.42	0.1865	0.00031
653.45	0.18574	0.00033
653.5	0.17663	0.00047
653.54	0.17617	0.00034
653.57	0.18961	0.00042
653.62	0.18493	0.00051
653.66	0.17989	0.0005
653.69	0.18202	0.00039
653.74	0.18946	0.00041
653.78	0.18284	0.00047
653.81	0.18284	0.00065
653.85	0.17174	0.0005
653.9	0.18961	0.00048
653.93	0.17815	0.00041
653.97	0.18569	0.00059
654.02	0.17922	0.00041
654.06	0.18503	0.00048
654.09	0.18447	0.00038
654.14	0.19231	0.00044
654.18	0.18864	0.00046
654.21	0.17154	0.00025
654.26	0.18218	0.00056
654.3	0.1781	0.0004
654.33	0.17627	0.00051
654.38	0.18564	0.00058
654.42	0.18594	0.0004
654.45	0.18116	0.00033
654.5	0.17831	0.00033
654.54	0.18859	0.00036
654.57	0.18299	0.00036
654.62	0.18208	0.00036
654.66	0.18085	0.0004
654.69	0.18106	0.00048
654.74	0.1865	0.00055
654.78	0.17714	0.00041
654.81	0.18101	0.00039
654.85	0.18284	0.00047
654.9	0.18488	0.00041
654.93	0.18192	0.00031
654.97	0.18197	0.00027
655.02	0.18202	0.00039
655.06	0.17759	0.0004
655.09	0.18218	0.00046
655.14	0.19175	0.00036
655.18	0.19058	0.00038
655.21	0.18656	0.00036
655.26	0.17983	0.00046
655.3	0.17994	0.00036
655.33	0.18564	0.00036
655.38	0.18004	0.00036
655.42	0.18274	0.00047
655.45	0.17739	0.00036
655.5	0.17922	0.00041
655.54	0.17821	0.00047
655.57	0.17795	0.00056
655.62	0.18773	0.00031
655.66	0.1725	0.00023
655.69	0.18579	0.00047
655.74	0.18956	0.0002
655.78	0.17999	0.00032
655.81	0.17215	0.00034
655.85	0.17703	0.0005
655.9	0.17719	0.00052
655.93	0.1779	0.00053
655.97	0.17622	0.00052
656.02	0.17057	0.00047
656.06	0.18019	0.00052
656.09	0.178	0.00048
656.14	0.18014	0.00033
656.18	0.17999	0.00046
656.21	0.18681	0.00034
656.26	0.17439	0.00064
656.3	0.18656	0.00027
656.33	0.1808	0.00061
656.38	0.18213	0.00044
656.42	0.17729	0.00023
656.45	0.17698	0.00027
656.5	0.17917	0.00052
656.54	0.18488	0.00047
656.57	0.18106	0.00048
656.62	0.17535	0.00042
656.66	0.17612	0.00041
656.69	0.17408	0.00047
656.74	0.17907	0.00044
656.78	0.17907	0.00044
656.81	0.17632	0.00038
656.85	0.17627	0.00056
656.9	0.17169	0.00056
656.93	0.18859	0.00027
656.97	0.18284	0.00052
657.02	0.18014	0.00051
657.06	0.17994	0.00058
657.09	0.17744	0.00032
657.14	0.17337	0.00032
657.18	0.17709	0.0004
657.21	0.17052	0.00041
657.26	0.1832	0.00033
657.3	0.18182	0.00034
657.33	0.18096	0.00027
657.38	0.1809	0.00055
657.42	0.17815	0.00041
657.45	0.17882	0.0004
657.5	0.18574	0.00023
657.54	0.17927	0.00041
657.57	0.17831	0.0004
657.62	0.18096	0.00027
657.66	0.18116	0.0004
657.69	0.17235	0.00032
657.74	0.17744	0.00046
657.78	0.17846	0.00039
657.81	0.17423	0.0004
657.85	0.17734	0.00038
657.9	0.18391	0.00033
657.93	0.18365	0.00038
657.97	0.18004	0.00053
658.02	0.17541	0.00032
658.06	0.17444	0.00042
658.09	0.17994	0.00036
658.14	0.18569	0.00044
658.18	0.1724	0.00048
658.21	0.18264	0.00044
658.26	0.18299	0.00053
658.3	0.17327	0.00031
658.33	0.1781	0.00051
658.38	0.17999	0.00051
658.42	0.17729	0.00033
658.45	0.17434	0.00036
658.5	0.17113	0.00025
658.54	0.17143	0.00044
658.57	0.17072	0.00044
658.62	0.1781	0.00033
658.66	0.17917	0.00034
658.69	0.17031	0.00023
658.74	0.17215	0.00034
658.78	0.17841	0.00036
658.81	0.17821	0.00025
658.85	0.17551	0.00031
658.9	0.17444	0.00036
658.93	0.18381	0.00025
658.97	0.18396	0.0005
659.02	0.17235	0.00039
659.06	0.18299	0.00053
659.09	0.17907	0.00038
659.14	0.17887	0.0005
659.18	0.18258	0.00053
659.21	0.1837	0.00046
659.26	0.18009	0.00044
659.3	0.17261	0.00041
659.33	0.17622	0.00047
659.38	0.17902	0.00048
659.42	0.17917	0.00034
659.45	0.17164	0.00034
659.5	0.17357	0.00025
659.54	0.18192	0.0002
659.57	0.1696	0.00025
659.62	0.17739	0.00036
659.66	0.16975	0.00036
659.69	0.17714	0.00041
659.74	0.17739	0.00027
659.78	0.1753	0.00038
659.81	0.17072	0.0005
659.85	0.17815	0.00047
659.9	0.18386	0.00041
659.93	0.17994	0.00042
659.97	0.17999	0.00051
660.02	0.17999	0.00039
660.06	0.16385	0.0004
660.09	0.18024	0.00047
660.14	0.18116	0.00051
660.18	0.17423	0.00023
660.21	0.17062	0.00041
660.26	0.17612	0.00025
660.3	0.17622	0.00034
660.33	0.17739	0.00027
660.38	0.17413	0.00025
660.42	0.17418	0.00034
660.45	0.17042	0.00071
660.5	0.17255	0.00052
660.54	0.17031	0.00039
