Raman-Spectrum _CCl4 _aspol001.dat
27/09/2021
11:37:54
_CCl4
_aspol0 Temp: NON
X in nm	Y Signal 	Error Signal				
625.04000	0.17632	0.00044
625.08000	0.17520	0.00041
625.12000	0.16706	0.00041
625.16000	0.16695	0.00069
625.20000	0.17551	0.00038
625.24000	0.16940	0.00038
625.28000	0.18752	0.00038
625.32000	0.18197	0.00036
625.36000	0.16884	0.00036
625.40000	0.17332	0.00027
625.44000	0.17444	0.00042
625.48000	0.17454	0.00051
625.52000	0.18192	0.00059
625.56000	0.16899	0.00041
625.60000	0.16614	0.00044
625.64000	0.17215	0.00047
625.68000	0.17042	0.00031
625.72000	0.17138	0.00027
625.76000	0.17149	0.00046
625.80000	0.16777	0.00032
625.84000	0.16777	0.00023
625.88000	0.16700	0.00047
625.92000	0.17123	0.00050
625.96000	0.16196	0.00061
626.00000	0.16767	0.00020
626.04000	0.16782	0.00036
626.08000	0.17052	0.00047
626.12000	0.15555	0.00046
626.16000	0.17327	0.00044
626.20000	0.17052	0.00057
626.24000	0.17332	0.00042
626.28000	0.17449	0.00044
626.32000	0.17154	0.00041
626.36000	0.17133	0.00032
626.40000	0.17815	0.00047
626.44000	0.16680	0.00048
626.48000	0.17042	0.00050
626.52000	0.16675	0.00046
626.56000	0.16507	0.00060
626.60000	0.16868	0.00038
626.64000	0.16879	0.00032
626.68000	0.17230	0.00036
626.72000	0.17556	0.00023
626.76000	0.17449	0.00031
626.80000	0.16507	0.00023
626.84000	0.17128	0.00036
626.88000	0.17520	0.00065
626.92000	0.17530	0.00055
626.96000	0.17143	0.00050
627.00000	0.17658	0.00040
627.04000	0.16431	0.00038
627.08000	0.16960	0.00034
627.12000	0.17739	0.00036
627.16000	0.17408	0.00034
627.20000	0.17576	0.00033
627.24000	0.17535	0.00036
627.28000	0.17434	0.00053
627.32000	0.17250	0.00056
627.36000	0.17133	0.00039
627.40000	0.17143	0.00050
627.44000	0.17062	0.00047
627.48000	0.16232	0.00046
627.52000	0.16207	0.00031
627.56000	0.17154	0.00052
627.60000	0.16919	0.00031
627.64000	0.17159	0.00034
627.68000	0.16588	0.00033
627.72000	0.16237	0.00041
627.76000	0.17230	0.00042
627.80000	0.16777	0.00032
627.84000	0.16767	0.00020
627.88000	0.16950	0.00025
627.92000	0.16970	0.00031
627.96000	0.17734	0.00044
628.00000	0.17541	0.00056
628.04000	0.16308	0.00044
628.08000	0.17164	0.00047
628.12000	0.17143	0.00055
628.16000	0.16772	0.00053
628.20000	0.16135	0.00041
628.24000	0.15998	0.00046
628.28000	0.16604	0.00034
628.32000	0.16135	0.00025
628.36000	0.16400	0.00061
628.40000	0.16420	0.00056
628.44000	0.15809	0.00056
628.48000	0.16609	0.00033
628.52000	0.15641	0.00046
628.56000	0.15367	0.00033
628.60000	0.14908	0.00033
628.64000	0.15927	0.00051
628.68000	0.14990	0.00036
628.72000	0.14974	0.00041
628.76000	0.14990	0.00036
628.80000	0.14430	0.00042
628.84000	0.14318	0.00056
628.88000	0.13859	0.00040
628.92000	0.13941	0.00046
628.96000	0.13386	0.00034
629.00000	0.13391	0.00041
629.04000	0.12724	0.00025
629.08000	0.13218	0.00042
629.12000	0.12358	0.00050
629.16000	0.12729	0.00034
629.20000	0.11696	0.00044
629.24000	0.11298	0.00057
629.28000	0.10830	0.00038
629.32000	0.10820	0.00023
629.36000	0.11782	0.00053
629.40000	0.10937	0.00033
629.44000	0.10937	0.00046
629.48000	0.10825	0.00027
629.52000	0.10530	0.00033
629.56000	0.10637	0.00025
629.60000	0.10647	0.00047
629.64000	0.09919	0.00040
629.68000	0.10097	0.00038
629.72000	0.10275	0.00023
629.76000	0.10642	0.00025
629.80000	0.09797	0.00042
629.84000	0.09909	0.00048
629.88000	0.09883	0.00047
629.92000	0.09914	0.00038
629.96000	0.09557	0.00038
630.00000	0.10458	0.00042
630.04000	0.09328	0.00033
630.08000	0.09323	0.00052
630.12000	0.09613	0.00033
630.16000	0.09674	0.00025
630.20000	0.09695	0.00042
630.24000	0.09618	0.00025
630.28000	0.09797	0.00042
630.32000	0.10183	0.00047
630.36000	0.09730	0.00047
630.40000	0.09603	0.00042
630.44000	0.09903	0.00039
630.48000	0.09888	0.00033
630.52000	0.09608	0.00038
630.56000	0.09878	0.00061
630.60000	0.09802	0.00072
630.64000	0.10092	0.00056
630.68000	0.09730	0.00041
630.72000	0.09705	0.00015
630.76000	0.09695	0.00048
630.80000	0.09328	0.00056
630.84000	0.09252	0.00044
630.88000	0.09399	0.00036
630.92000	0.09522	0.00057
630.96000	0.09328	0.00040
631.00000	0.09776	0.00034
631.04000	0.09236	0.00042
631.08000	0.09231	0.00050
631.12000	0.09807	0.00027
631.16000	0.09898	0.00042
631.20000	0.09710	0.00031
631.24000	0.09888	0.00040
631.28000	0.09333	0.00050
631.32000	0.10178	0.00025
631.36000	0.10163	0.00042
631.40000	0.10178	0.00061
631.44000	0.10555	0.00059
631.48000	0.10265	0.00036
631.52000	0.10061	0.00036
631.56000	0.10158	0.00046
631.60000	0.09893	0.00064
631.64000	0.09639	0.00031
631.68000	0.09603	0.00015
631.72000	0.10845	0.00025
631.76000	0.10453	0.00031
631.80000	0.10932	0.00044
631.84000	0.11202	0.00025
631.88000	0.11202	0.00025
631.92000	0.11125	0.00060
631.96000	0.11100	0.00025
632.00000	0.10530	0.00051
632.04000	0.11013	0.00038
632.08000	0.11584	0.00032
632.12000	0.11217	0.00038
632.16000	0.11115	0.00038
632.20000	0.11426	0.00015
632.24000	0.11431	0.00068
632.28000	0.11502	0.00061
632.32000	0.11334	0.00036
632.36000	0.10998	0.00047
632.40000	0.11767	0.00047
632.44000	0.12154	0.00044
632.48000	0.11380	0.00056
632.52000	0.12159	0.00056
632.56000	0.12174	0.00061
632.60000	0.11869	0.00025
632.64000	0.11675	0.00055
632.68000	0.11482	0.00039
632.72000	0.11782	0.00048
632.76000	0.11314	0.00033
632.80000	0.11614	0.00047
632.84000	0.11584	0.00051
632.88000	0.11293	0.00040
632.92000	0.11609	0.00047
632.96000	0.09791	0.00044
633.00000	0.10810	0.00038
633.04000	0.11298	0.00034
633.08000	0.10647	0.00034
633.12000	0.10637	0.00041
633.16000	0.10662	0.00036
633.20000	0.10448	0.00023
633.24000	0.10392	0.00034
633.28000	0.10071	0.00033
633.32000	0.10830	0.00038
633.36000	0.10301	0.00031
633.40000	0.10810	0.00031
633.44000	0.10820	0.00046
633.48000	0.10626	0.00059
633.52000	0.10377	0.00023
633.56000	0.09929	0.00047
633.60000	0.10005	0.00039
633.64000	0.09888	0.00023
633.68000	0.09695	0.00042
633.72000	0.09700	0.00039
633.76000	0.10372	0.00020
633.80000	0.09318	0.00025
633.84000	0.10010	0.00042
633.88000	0.09130	0.00044
633.92000	0.09420	0.00034
633.96000	0.09410	0.00033
634.00000	0.10021	0.00023
634.04000	0.10005	0.00023
634.08000	0.09685	0.00046
634.12000	0.09547	0.00039
634.16000	0.09827	0.00034
634.20000	0.09140	0.00046
634.24000	0.09405	0.00038
634.28000	0.09893	0.00050
634.32000	0.09934	0.00057
634.36000	0.09603	0.00027
634.40000	0.10071	0.00040
634.44000	0.09308	0.00046
634.48000	0.09593	0.00042
634.52000	0.09216	0.00061
634.56000	0.10194	0.00056
634.60000	0.10163	0.00036
634.64000	0.09685	0.00051
634.68000	0.09435	0.00044
634.72000	0.09608	0.00031
634.76000	0.09700	0.00023
634.80000	0.10000	0.00036
634.84000	0.10000	0.00027
634.88000	0.10087	0.00047
634.92000	0.10087	0.00047
634.96000	0.09328	0.00033
635.00000	0.09705	0.00048
635.04000	0.10051	0.00027
635.08000	0.09639	0.00050
635.12000	0.09323	0.00034
635.16000	0.09491	0.00036
635.20000	0.09496	0.00032
635.24000	0.09527	0.00041
635.28000	0.09812	0.00031
635.32000	0.09898	0.00048
635.36000	0.09710	0.00044
635.40000	0.09791	0.00055
635.44000	0.10005	0.00023
635.48000	0.09791	0.00031
635.52000	0.09791	0.00038
635.56000	0.10270	0.00031
635.60000	0.10372	0.00031
635.64000	0.09812	0.00044
635.68000	0.09338	0.00036
635.72000	0.09420	0.00041
635.76000	0.09323	0.00057
635.80000	0.09313	0.00057
635.84000	0.09608	0.00044
635.88000	0.10204	0.00048
635.92000	0.10010	0.00036
635.96000	0.09893	0.00044
636.00000	0.09430	0.00033
636.04000	0.09155	0.00033
636.08000	0.09119	0.00057
636.12000	0.09038	0.00068
636.16000	0.09410	0.00033
636.20000	0.09679	0.00047
636.24000	0.09618	0.00041
636.28000	0.09634	0.00033
636.32000	0.09715	0.00040
636.36000	0.10000	0.00048
636.40000	0.09995	0.00020
636.44000	0.09216	0.00047
636.48000	0.08773	0.00038
636.52000	0.09522	0.00052
636.56000	0.09629	0.00025
636.60000	0.09797	0.00042
636.64000	0.10204	0.00042
636.68000	0.10194	0.00040
636.72000	0.10010	0.00027
636.76000	0.09532	0.00046
636.80000	0.09888	0.00033
636.84000	0.08967	0.00041
636.88000	0.09720	0.00052
636.92000	0.09506	0.00044
636.96000	0.09496	0.00032
637.00000	0.10087	0.00025
637.04000	0.08946	0.00050
637.08000	0.09450	0.00036
637.12000	0.09298	0.00042
637.16000	0.10199	0.00050
637.20000	0.09038	0.00039
637.24000	0.10285	0.00052
637.28000	0.10245	0.00046
637.32000	0.09878	0.00034
637.36000	0.09812	0.00038
637.40000	0.09695	0.00048
637.44000	0.09527	0.00034
637.48000	0.09878	0.00025
637.52000	0.10087	0.00041
637.56000	0.10107	0.00039
637.60000	0.09797	0.00053
637.64000	0.09710	0.00055
637.68000	0.09328	0.00065
637.72000	0.10372	0.00044
637.76000	0.10082	0.00034
637.80000	0.09878	0.00041
637.84000	0.10545	0.00034
637.88000	0.10535	0.00047
637.92000	0.09888	0.00033
637.96000	0.09710	0.00055
638.00000	0.10087	0.00041
638.04000	0.10173	0.00056
638.08000	0.09690	0.00031
638.12000	0.09812	0.00038
638.16000	0.09797	0.00048
638.20000	0.10387	0.00052
638.24000	0.10626	0.00031
638.28000	0.09975	0.00052
638.32000	0.10738	0.00047
638.36000	0.10744	0.00047
638.40000	0.10642	0.00025
638.44000	0.10637	0.00025
638.48000	0.10362	0.00046
638.52000	0.11013	0.00044
638.56000	0.10922	0.00032
638.60000	0.11298	0.00047
638.64000	0.11202	0.00041
638.68000	0.11696	0.00031
638.72000	0.11492	0.00059
638.76000	0.11487	0.00042
638.80000	0.11599	0.00040
638.84000	0.11492	0.00044
638.88000	0.11421	0.00050
638.92000	0.12174	0.00052
638.96000	0.12444	0.00027
639.00000	0.12918	0.00031
639.04000	0.12907	0.00039
639.08000	0.13213	0.00039
639.12000	0.13213	0.00032
639.16000	0.13284	0.00041
639.20000	0.13177	0.00046
639.24000	0.13564	0.00027
639.28000	0.14231	0.00046
639.32000	0.14068	0.00044
639.36000	0.14033	0.00042
639.40000	0.14328	0.00036
639.44000	0.14043	0.00046
639.48000	0.14812	0.00047
639.52000	0.14343	0.00031
639.56000	0.16039	0.00041
639.60000	0.15723	0.00023
639.64000	0.15733	0.00034
639.68000	0.15458	0.00036
639.72000	0.16130	0.00046
639.76000	0.16507	0.00060
639.80000	0.16212	0.00062
639.84000	0.16889	0.00031
639.88000	0.16314	0.00036
639.92000	0.16298	0.00034
639.96000	0.16588	0.00023
640.00000	0.17072	0.00044
640.04000	0.18116	0.00060
640.08000	0.18182	0.00034
640.12000	0.18279	0.00041
640.16000	0.18014	0.00040
640.20000	0.19236	0.00046
640.24000	0.19231	0.00044
640.28000	0.18849	0.00040
640.32000	0.18869	0.00036
640.36000	0.19704	0.00052
640.40000	0.19511	0.00040
640.44000	0.20066	0.00057
640.48000	0.19903	0.00034
640.52000	0.19893	0.00044
640.56000	0.20152	0.00040
640.60000	0.21782	0.00033
640.64000	0.20463	0.00047
640.68000	0.21395	0.00023
640.72000	0.22118	0.00048
640.76000	0.22230	0.00036
640.80000	0.22235	0.00031
640.84000	0.23401	0.00058
640.88000	0.23553	0.00053
640.92000	0.24388	0.00034
640.96000	0.25733	0.00048
641.00000	0.27336	0.00052
641.04000	0.26695	0.00020
641.08000	0.28024	0.00036
641.12000	0.27973	0.00036
641.16000	0.28721	0.00034
641.20000	0.29678	0.00025
641.24000	0.30911	0.00047
641.28000	0.29409	0.00062
641.32000	0.29867	0.00048
641.36000	0.31211	0.00025
641.40000	0.31226	0.00038
641.44000	0.31206	0.00034
641.48000	0.29225	0.00034
641.52000	0.30524	0.00051
641.56000	0.31308	0.00034
641.60000	0.31639	0.00027
641.64000	0.30921	0.00038
641.68000	0.30060	0.00048
641.72000	0.30050	0.00040
641.76000	0.30340	0.00034
641.80000	0.30345	0.00041
641.84000	0.30829	0.00032
641.88000	0.28558	0.00034
641.92000	0.29139	0.00050
641.96000	0.27983	0.00042
642.00000	0.28014	0.00046
642.04000	0.27723	0.00023
642.08000	0.27708	0.00033
642.12000	0.25585	0.00046
642.16000	0.25717	0.00041
642.20000	0.25529	0.00042
642.24000	0.24709	0.00031
642.28000	0.24704	0.00051
642.32000	0.24414	0.00032
642.36000	0.24409	0.00042
642.40000	0.23762	0.00031
642.44000	0.22622	0.00031
642.48000	0.22067	0.00042
642.52000	0.20835	0.00033
642.56000	0.20550	0.00036
642.60000	0.20544	0.00032
642.64000	0.21502	0.00031
642.68000	0.21318	0.00038
642.72000	0.21293	0.00040
642.76000	0.20921	0.00047
642.80000	0.20183	0.00027
642.84000	0.20916	0.00046
642.88000	0.20926	0.00034
642.92000	0.20529	0.00051
642.96000	0.20534	0.00050
643.00000	0.20102	0.00051
643.04000	0.21232	0.00034
643.08000	0.19725	0.00048
643.12000	0.20178	0.00031
643.16000	0.19501	0.00034
643.20000	0.19536	0.00038
643.24000	0.19979	0.00048
643.28000	0.19536	0.00044
643.32000	0.19801	0.00041
643.36000	0.20453	0.00038
643.40000	0.20081	0.00048
643.44000	0.19699	0.00047
643.48000	0.19720	0.00044
643.52000	0.19903	0.00041
643.56000	0.19725	0.00036
643.60000	0.19068	0.00039
643.64000	0.20193	0.00027
643.68000	0.18584	0.00025
643.72000	0.19699	0.00052
643.76000	0.19725	0.00036
643.80000	0.19821	0.00031
643.84000	0.20234	0.00048
643.88000	0.19017	0.00039
643.92000	0.19811	0.00052
643.96000	0.20275	0.00033
644.00000	0.20056	0.00061
644.04000	0.20926	0.00047
644.08000	0.20931	0.00052
644.12000	0.20071	0.00040
644.16000	0.20005	0.00047
644.20000	0.20356	0.00040
644.24000	0.20443	0.00032
644.28000	0.20921	0.00047
644.32000	0.20631	0.00033
644.36000	0.20626	0.00025
644.40000	0.20580	0.00040
644.44000	0.20636	0.00031
644.48000	0.21084	0.00041
644.52000	0.22525	0.00053
644.56000	0.22352	0.00047
644.60000	0.22444	0.00046
644.64000	0.22433	0.00053
644.68000	0.21680	0.00046
644.72000	0.23467	0.00041
644.76000	0.24714	0.00042
644.80000	0.24119	0.00044
644.84000	0.24882	0.00044
644.88000	0.24882	0.00031
644.92000	0.26181	0.00046
644.96000	0.26242	0.00027
645.00000	0.27815	0.00050
645.04000	0.27143	0.00041
645.08000	0.26939	0.00025
645.12000	0.27224	0.00031
645.16000	0.28752	0.00038
645.20000	0.29699	0.00050
645.24000	0.29673	0.00040
645.28000	0.29297	0.00036
645.32000	0.31771	0.00034
645.36000	0.30651	0.00041
645.40000	0.30361	0.00020
645.44000	0.30641	0.00033
645.48000	0.31465	0.00047
645.52000	0.30651	0.00025
645.56000	0.30646	0.00047
645.60000	0.30916	0.00046
645.64000	0.31297	0.00020
645.68000	0.30834	0.00048
645.72000	0.30890	0.00059
645.76000	0.30732	0.00048
645.80000	0.29190	0.00038
645.84000	0.29195	0.00027
645.88000	0.30804	0.00025
645.92000	0.28645	0.00058
645.96000	0.28655	0.00046
646.00000	0.28655	0.00033
646.04000	0.28563	0.00041
646.08000	0.26970	0.00038
646.12000	0.26970	0.00044
646.16000	0.25544	0.00044
646.20000	0.26094	0.00046
646.24000	0.24383	0.00025
646.28000	0.24220	0.00038
646.32000	0.23085	0.00036
646.36000	0.23100	0.00038
646.40000	0.22057	0.00033
646.44000	0.22067	0.00053
646.48000	0.21792	0.00047
646.52000	0.21797	0.00047
646.56000	0.21105	0.00039
646.60000	0.21497	0.00023
646.64000	0.21140	0.00051
646.68000	0.19816	0.00033
646.72000	0.19806	0.00034
646.76000	0.20168	0.00025
646.80000	0.20183	0.00042
646.84000	0.19536	0.00038
646.88000	0.20010	0.00034
646.92000	0.19699	0.00034
646.96000	0.18650	0.00031
647.00000	0.18630	0.00025
647.04000	0.19424	0.00032
647.08000	0.20086	0.00039
647.12000	0.19155	0.00046
647.16000	0.18783	0.00047
647.20000	0.19521	0.00042
647.24000	0.19246	0.00025
647.28000	0.18401	0.00036
647.32000	0.18386	0.00047
647.36000	0.19526	0.00051
647.40000	0.19516	0.00038
647.44000	0.19613	0.00040
647.48000	0.19241	0.00034
647.52000	0.18493	0.00046
647.56000	0.19241	0.00052
647.60000	0.19236	0.00046
647.64000	0.18406	0.00056
647.68000	0.19134	0.00040
647.72000	0.18757	0.00027
647.76000	0.18508	0.00046
647.80000	0.18482	0.00047
647.84000	0.19241	0.00025
647.88000	0.17810	0.00046
647.92000	0.17810	0.00023
647.96000	0.18457	0.00039
648.00000	0.17826	0.00047
648.04000	0.18656	0.00036
648.08000	0.17841	0.00036
648.12000	0.18029	0.00052
648.16000	0.17541	0.00046
648.20000	0.17535	0.00048
648.24000	0.18752	0.00044
648.28000	0.19048	0.00025
648.32000	0.19323	0.00051
648.36000	0.18401	0.00048
648.40000	0.18482	0.00047
648.44000	0.18386	0.00034
648.48000	0.18396	0.00031
648.52000	0.18401	0.00036
648.56000	0.17912	0.00033
648.60000	0.19715	0.00051
648.64000	0.19221	0.00032
648.68000	0.18309	0.00062
648.72000	0.18488	0.00047
648.76000	0.19888	0.00036
648.80000	0.19883	0.00056
648.84000	0.18569	0.00050
648.88000	0.18126	0.00041
648.92000	0.18880	0.00040
648.96000	0.19053	0.00046
649.00000	0.18834	0.00052
649.04000	0.17734	0.00031
649.08000	0.17739	0.00015
649.12000	0.18279	0.00025
649.16000	0.18778	0.00033
649.20000	0.18299	0.00053
649.24000	0.18309	0.00058
649.28000	0.18966	0.00064
649.32000	0.17709	0.00023
649.36000	0.18757	0.00027
649.40000	0.18737	0.00047
649.44000	0.18386	0.00047
649.48000	0.18778	0.00040
649.52000	0.19032	0.00046
649.56000	0.18269	0.00046
649.60000	0.18752	0.00031
649.64000	0.19587	0.00050
649.68000	0.19618	0.00038
649.72000	0.18269	0.00023
649.76000	0.19806	0.00041
649.80000	0.18930	0.00033
649.84000	0.19027	0.00038
649.88000	0.19323	0.00039
649.92000	0.18376	0.00047
649.96000	0.18381	0.00034
650.00000	0.18569	0.00038
650.04000	0.19516	0.00038
650.08000	0.19058	0.00050
650.12000	0.18864	0.00039
650.16000	0.19735	0.00027
650.20000	0.18309	0.00042
650.24000	0.19618	0.00044
650.28000	0.19582	0.00036
650.32000	0.19251	0.00047
650.36000	0.19511	0.00051
650.40000	0.18951	0.00046
650.44000	0.20056	0.00025
650.48000	0.19419	0.00027
650.52000	0.19343	0.00052
650.56000	0.19312	0.00044
650.60000	0.19526	0.00039
650.64000	0.19053	0.00023
650.68000	0.19872	0.00044
650.72000	0.20117	0.00052
650.76000	0.20076	0.00038
650.80000	0.19872	0.00044
650.84000	0.19867	0.00040
650.88000	0.19597	0.00047
650.92000	0.21400	0.00044
650.96000	0.21013	0.00055
651.00000	0.21771	0.00015
651.04000	0.22036	0.00023
651.08000	0.21120	0.00040
651.12000	0.21497	0.00033
651.16000	0.21476	0.00023
651.20000	0.21201	0.00053
651.24000	0.22550	0.00047
651.28000	0.21975	0.00048
651.32000	0.22912	0.00047
651.36000	0.22484	0.00042
651.40000	0.21853	0.00040
651.44000	0.21858	0.00038
651.48000	0.22973	0.00051
651.52000	0.22057	0.00046
651.56000	0.23762	0.00050
651.60000	0.22530	0.00039
651.64000	0.21965	0.00048
651.68000	0.22886	0.00039
651.72000	0.22255	0.00034
651.76000	0.22225	0.00032
651.80000	0.22622	0.00050
651.84000	0.22362	0.00033
651.88000	0.22871	0.00046
651.92000	0.21863	0.00036
651.96000	0.21675	0.00031
652.00000	0.21797	0.00057
652.04000	0.21771	0.00027
652.08000	0.22143	0.00041
652.12000	0.21410	0.00032
652.16000	0.21115	0.00055
652.20000	0.20264	0.00025
652.24000	0.20748	0.00056
652.28000	0.20112	0.00041
652.32000	0.20117	0.00041
652.36000	0.19684	0.00027
652.40000	0.20015	0.00047
652.44000	0.18920	0.00042
652.48000	0.20076	0.00050
652.52000	0.19995	0.00038
652.56000	0.19424	0.00032
652.60000	0.18264	0.00031
652.64000	0.18269	0.00033
652.68000	0.19618	0.00031
652.72000	0.18304	0.00032
652.76000	0.18895	0.00047
652.80000	0.18202	0.00039
652.84000	0.18391	0.00060
652.88000	0.18849	0.00040
652.92000	0.18844	0.00034
652.96000	0.18752	0.00020
653.00000	0.17525	0.00040
653.04000	0.18391	0.00040
653.08000	0.18488	0.00052
653.12000	0.18650	0.00031
653.16000	0.18574	0.00033
653.20000	0.17663	0.00047
653.24000	0.17617	0.00034
653.28000	0.18961	0.00042
653.32000	0.18493	0.00051
653.36000	0.17989	0.00050
653.40000	0.18202	0.00039
653.44000	0.18946	0.00041
653.48000	0.18284	0.00047
653.52000	0.18284	0.00065
653.56000	0.17174	0.00050
653.60000	0.18961	0.00048
653.64000	0.17815	0.00041
653.68000	0.18569	0.00059
653.72000	0.17922	0.00041
653.76000	0.18503	0.00048
653.80000	0.18447	0.00038
653.84000	0.19231	0.00044
653.88000	0.18864	0.00046
653.92000	0.17154	0.00025
653.96000	0.18218	0.00056
654.00000	0.17810	0.00040
654.04000	0.17627	0.00051
654.08000	0.18564	0.00058
654.12000	0.18594	0.00040
654.16000	0.18116	0.00033
654.20000	0.17831	0.00033
654.24000	0.18859	0.00036
654.28000	0.18299	0.00036
654.32000	0.18208	0.00036
654.36000	0.18085	0.00040
654.40000	0.18106	0.00048
654.44000	0.18650	0.00055
654.48000	0.17714	0.00041
654.52000	0.18101	0.00039
654.56000	0.18284	0.00047
654.60000	0.18488	0.00041
654.64000	0.18192	0.00031
654.68000	0.18197	0.00027
654.72000	0.18202	0.00039
654.76000	0.17759	0.00040
654.80000	0.18218	0.00046
654.84000	0.19175	0.00036
654.88000	0.19058	0.00038
654.92000	0.18656	0.00036
654.96000	0.17983	0.00046
655.00000	0.17994	0.00036
655.04000	0.18564	0.00036
655.08000	0.18004	0.00036
655.12000	0.18274	0.00047
655.16000	0.17739	0.00036
655.20000	0.17922	0.00041
655.24000	0.17821	0.00047
655.28000	0.17795	0.00056
655.32000	0.18773	0.00031
655.36000	0.17250	0.00023
655.40000	0.18579	0.00047
655.44000	0.18956	0.00020
655.48000	0.17999	0.00032
655.52000	0.17215	0.00034
655.56000	0.17703	0.00050
