Raman-Spectrum _CDCl3 _pol0r01.dat
27/09/2021
10:17:34
_CDCl3
_pol0r Temp: NON
X in nm	Y Signal 	Error Signal				
625,04000	0,09058	0,00052
625,08000	0,08478	0,00039
625,12000	0,08768	0,00023
625,16000	0,08575	0,00042
625,20000	0,08656	0,00041
625,24000	0,08676	0,00062
625,28000	0,09226	0,00040
625,32000	0,08656	0,00034
625,36000	0,08391	0,00023
625,40000	0,08585	0,00036
625,44000	0,08519	0,00044
625,48000	0,08325	0,00032
625,52000	0,08300	0,00047
625,56000	0,08676	0,00048
625,60000	0,09043	0,00036
625,64000	0,08458	0,00052
625,68000	0,08921	0,00040
625,72000	0,08575	0,00036
625,76000	0,08671	0,00044
625,80000	0,07999	0,00041
625,84000	0,07999	0,00041
625,88000	0,08442	0,00040
625,92000	0,08768	0,00040
625,96000	0,08514	0,00051
626,00000	0,08030	0,00038
626,04000	0,08473	0,00036
626,08000	0,08580	0,00056
626,12000	0,08595	0,00033
626,16000	0,08855	0,00047
626,20000	0,08488	0,00059
626,24000	0,08177	0,00042
626,28000	0,08295	0,00057
626,32000	0,08758	0,00041
626,36000	0,08676	0,00048
626,40000	0,08676	0,00062
626,44000	0,09247	0,00027
626,48000	0,08564	0,00033
626,52000	0,08850	0,00051
626,56000	0,08493	0,00040
626,60000	0,08661	0,00052
626,64000	0,09068	0,00041
626,68000	0,09063	0,00041
626,72000	0,09033	0,00036
626,76000	0,08458	0,00025
626,80000	0,08829	0,00027
626,84000	0,08743	0,00044
626,88000	0,08936	0,00039
626,92000	0,09420	0,00025
626,96000	0,09038	0,00046
627,00000	0,09053	0,00056
627,04000	0,08844	0,00044
627,08000	0,08687	0,00053
627,12000	0,09058	0,00041
627,16000	0,08687	0,00042
627,20000	0,08844	0,00038
627,24000	0,09221	0,00025
627,28000	0,09236	0,00042
627,32000	0,08753	0,00034
627,36000	0,09033	0,00048
627,40000	0,08860	0,00041
627,44000	0,09119	0,00061
627,48000	0,09333	0,00055
627,52000	0,09236	0,00036
627,56000	0,09058	0,00052
627,60000	0,09074	0,00056
627,64000	0,09425	0,00034
627,68000	0,09160	0,00034
627,72000	0,09639	0,00031
627,76000	0,09399	0,00036
627,80000	0,09231	0,00050
627,84000	0,10015	0,00031
627,88000	0,09985	0,00041
627,92000	0,09517	0,00047
627,96000	0,09496	0,00056
628,00000	0,09333	0,00050
628,04000	0,09257	0,00033
628,08000	0,09924	0,00034
628,12000	0,09461	0,00040
628,16000	0,09995	0,00050
628,20000	0,09995	0,00031
628,24000	0,10158	0,00046
628,28000	0,09919	0,00046
628,32000	0,09608	0,00031
628,36000	0,09618	0,00025
628,40000	0,09634	0,00051
628,44000	0,10290	0,00025
628,48000	0,10321	0,00059
628,52000	0,10280	0,00034
628,56000	0,10178	0,00025
628,60000	0,10275	0,00046
628,64000	0,09817	0,00040
628,68000	0,09715	0,00033
628,72000	0,09995	0,00031
628,76000	0,10010	0,00027
628,80000	0,09710	0,00055
628,84000	0,09797	0,00015
628,88000	0,09608	0,00020
628,92000	0,09359	0,00040
628,96000	0,09608	0,00038
629,00000	0,09608	0,00044
629,04000	0,09410	0,00023
629,08000	0,09415	0,00034
629,12000	0,09242	0,00051
629,16000	0,09705	0,00042
629,20000	0,09629	0,00057
629,24000	0,09155	0,00046
629,28000	0,09410	0,00023
629,32000	0,09822	0,00041
629,36000	0,09807	0,00053
629,40000	0,09328	0,00040
629,44000	0,09058	0,00057
629,48000	0,08590	0,00038
629,52000	0,09165	0,00025
629,56000	0,08844	0,00031
629,60000	0,08580	0,00056
629,64000	0,08595	0,00056
629,68000	0,08768	0,00033
629,72000	0,08946	0,00038
629,76000	0,08590	0,00038
629,80000	0,08590	0,00038
629,84000	0,08412	0,00060
629,88000	0,08575	0,00036
629,92000	0,08468	0,00038
629,96000	0,08478	0,00032
630,00000	0,08590	0,00055
630,04000	0,08850	0,00040
630,08000	0,08666	0,00040
630,12000	0,08295	0,00041
630,16000	0,08687	0,00053
630,20000	0,08687	0,00036
630,24000	0,08666	0,00040
630,28000	0,08860	0,00041
630,32000	0,08289	0,00040
630,36000	0,08009	0,00031
630,40000	0,08289	0,00046
630,44000	0,08656	0,00025
630,48000	0,08972	0,00040
630,52000	0,07877	0,00038
630,56000	0,07897	0,00052
630,60000	0,08514	0,00046
630,64000	0,08488	0,00050
630,68000	0,08676	0,00058
630,72000	0,08478	0,00032
630,76000	0,07831	0,00023
630,80000	0,08687	0,00053
630,84000	0,08651	0,00034
630,88000	0,08264	0,00064
630,92000	0,08855	0,00034
630,96000	0,08575	0,00048
631,00000	0,08177	0,00053
631,04000	0,09145	0,00036
631,08000	0,08289	0,00060
631,12000	0,08300	0,00041
631,16000	0,08106	0,00033
631,20000	0,08773	0,00031
631,24000	0,08697	0,00033
631,28000	0,08381	0,00036
631,32000	0,08605	0,00034
631,36000	0,09043	0,00036
631,40000	0,09150	0,00044
631,44000	0,09150	0,00044
631,48000	0,08564	0,00040
631,52000	0,09527	0,00052
631,56000	0,08564	0,00051
631,60000	0,09140	0,00039
631,64000	0,08941	0,00036
631,68000	0,09501	0,00027
631,72000	0,09532	0,00033
631,76000	0,09348	0,00053
631,80000	0,09613	0,00046
631,84000	0,09914	0,00044
631,88000	0,09425	0,00052
631,92000	0,09155	0,00040
631,96000	0,10469	0,00036
632,00000	0,10448	0,00046
632,04000	0,10749	0,00034
632,08000	0,10362	0,00039
632,12000	0,10178	0,00041
632,16000	0,10545	0,00034
632,20000	0,10082	0,00041
632,24000	0,10759	0,00031
632,28000	0,10942	0,00041
632,32000	0,10917	0,00048
632,36000	0,10377	0,00046
632,40000	0,10632	0,00023
632,44000	0,10733	0,00046
632,48000	0,10932	0,00044
632,52000	0,10576	0,00038
632,56000	0,10957	0,00023
632,60000	0,10927	0,00042
632,64000	0,10565	0,00051
632,68000	0,10830	0,00031
632,72000	0,10937	0,00046
632,76000	0,09888	0,00040
632,80000	0,10565	0,00056
632,84000	0,10652	0,00033
632,88000	0,09425	0,00061
632,92000	0,09420	0,00052
632,96000	0,10352	0,00031
633,00000	0,10087	0,00025
633,04000	0,09980	0,00047
633,08000	0,09685	0,00051
633,12000	0,09980	0,00025
633,16000	0,09919	0,00060
633,20000	0,09888	0,00056
633,24000	0,09410	0,00033
633,28000	0,09822	0,00041
633,32000	0,09155	0,00040
633,36000	0,09435	0,00020
633,40000	0,09236	0,00053
633,44000	0,08687	0,00036
633,48000	0,08687	0,00048
633,52000	0,08585	0,00048
633,56000	0,09420	0,00041
633,60000	0,08391	0,00033
633,64000	0,08977	0,00031
633,68000	0,08575	0,00027
633,72000	0,08386	0,00038
633,76000	0,08493	0,00023
633,80000	0,08488	0,00050
633,84000	0,08488	0,00050
633,88000	0,08763	0,00076
633,92000	0,08289	0,00046
633,96000	0,08274	0,00039
634,00000	0,08559	0,00025
634,04000	0,08381	0,00042
634,08000	0,08391	0,00040
634,12000	0,08193	0,00025
634,16000	0,08855	0,00052
634,20000	0,08575	0,00036
634,24000	0,08396	0,00034
634,28000	0,08381	0,00036
634,32000	0,08493	0,00046
634,36000	0,08478	0,00046
634,40000	0,08493	0,00040
634,44000	0,08575	0,00042
634,48000	0,08844	0,00050
634,52000	0,08315	0,00050
634,56000	0,08315	0,00038
634,60000	0,08544	0,00033
634,64000	0,08865	0,00047
634,68000	0,08850	0,00046
634,72000	0,08590	0,00031
634,76000	0,08773	0,00031
634,80000	0,08096	0,00065
634,84000	0,08951	0,00040
634,88000	0,08773	0,00031
634,92000	0,08590	0,00031
634,96000	0,08585	0,00042
635,00000	0,08284	0,00064
635,04000	0,08890	0,00053
635,08000	0,07897	0,00052
635,12000	0,08396	0,00041
635,16000	0,08478	0,00051
635,20000	0,08946	0,00031
635,24000	0,08926	0,00044
635,28000	0,08656	0,00041
635,32000	0,09028	0,00031
635,36000	0,08829	0,00036
635,40000	0,08177	0,00027
635,44000	0,08300	0,00041
635,48000	0,08585	0,00036
635,52000	0,08188	0,00033
635,56000	0,08208	0,00040
635,60000	0,08570	0,00050
635,64000	0,08590	0,00050
635,68000	0,08575	0,00027
635,72000	0,08289	0,00040
635,76000	0,08595	0,00040
635,80000	0,08498	0,00047
635,84000	0,08478	0,00023
635,88000	0,08483	0,00048
635,92000	0,08396	0,00034
635,96000	0,08447	0,00034
636,00000	0,08193	0,00041
636,04000	0,08101	0,00047
636,08000	0,08768	0,00040
636,12000	0,08687	0,00058
636,16000	0,08661	0,00034
636,20000	0,08473	0,00048
636,24000	0,08183	0,00050
636,28000	0,08289	0,00040
636,32000	0,08279	0,00048
636,36000	0,08366	0,00020
636,40000	0,08101	0,00041
636,44000	0,08106	0,00023
636,48000	0,08773	0,00031
636,52000	0,08570	0,00050
636,56000	0,08412	0,00033
636,60000	0,08203	0,00057
636,64000	0,08188	0,00040
636,68000	0,08595	0,00023
636,72000	0,08580	0,00032
636,76000	0,08600	0,00041
636,80000	0,08564	0,00046
636,84000	0,08839	0,00036
636,88000	0,08972	0,00046
636,92000	0,08386	0,00038
636,96000	0,08610	0,00025
637,00000	0,08473	0,00027
637,04000	0,08498	0,00057
637,08000	0,08788	0,00042
637,12000	0,08096	0,00052
637,16000	0,08284	0,00038
637,20000	0,08564	0,00033
637,24000	0,08468	0,00050
637,28000	0,08656	0,00034
637,32000	0,08656	0,00025
637,36000	0,08778	0,00042
637,40000	0,09028	0,00038
637,44000	0,08758	0,00052
637,48000	0,08692	0,00031
637,52000	0,08412	0,00033
637,56000	0,08208	0,00046
637,60000	0,08193	0,00041
637,64000	0,08284	0,00038
637,68000	0,08081	0,00044
637,72000	0,08508	0,00052
637,76000	0,08850	0,00051
637,80000	0,08493	0,00023
637,84000	0,08463	0,00051
637,88000	0,08289	0,00033
637,92000	0,08289	0,00033
637,96000	0,08025	0,00048
638,00000	0,08758	0,00034
638,04000	0,08483	0,00036
638,08000	0,08381	0,00027
638,12000	0,08763	0,00047
638,16000	0,08091	0,00047
638,20000	0,08111	0,00044
638,24000	0,08330	0,00036
638,28000	0,08371	0,00036
638,32000	0,08600	0,00041
638,36000	0,08391	0,00046
638,40000	0,08936	0,00039
638,44000	0,08834	0,00046
638,48000	0,08850	0,00040
638,52000	0,08844	0,00055
638,56000	0,08208	0,00033
638,60000	0,08488	0,00038
638,64000	0,08946	0,00044
638,68000	0,08407	0,00034
638,72000	0,08498	0,00061
638,76000	0,08183	0,00038
638,80000	0,08183	0,00044
638,84000	0,08483	0,00058
638,88000	0,08493	0,00046
638,92000	0,08580	0,00039
638,96000	0,08758	0,00025
639,00000	0,09053	0,00046
639,04000	0,08855	0,00034
639,08000	0,08880	0,00027
639,12000	0,08753	0,00034
639,16000	0,08580	0,00023
639,20000	0,08768	0,00033
639,24000	0,08824	0,00031
639,28000	0,08676	0,00042
639,32000	0,08758	0,00047
639,36000	0,08468	0,00038
639,40000	0,08483	0,00027
639,44000	0,09063	0,00041
639,48000	0,09328	0,00046
639,52000	0,08488	0,00031
639,56000	0,08956	0,00025
639,60000	0,08478	0,00039
639,64000	0,08676	0,00042
639,68000	0,08697	0,00046
639,72000	0,08463	0,00033
639,76000	0,08544	0,00056
639,80000	0,08580	0,00032
639,84000	0,09028	0,00031
639,88000	0,08376	0,00046
639,92000	0,08483	0,00036
639,96000	0,08478	0,00039
640,00000	0,08783	0,00023
640,04000	0,08844	0,00038
640,08000	0,08855	0,00057
640,12000	0,08865	0,00047
640,16000	0,08671	0,00055
640,20000	0,08407	0,00034
640,24000	0,08676	0,00036
640,28000	0,08671	0,00050
640,32000	0,08503	0,00041
640,36000	0,08773	0,00055
640,40000	0,09048	0,00055
640,44000	0,08987	0,00023
640,48000	0,08839	0,00027
640,52000	0,08636	0,00027
640,56000	0,08646	0,00046
640,60000	0,08483	0,00042
640,64000	0,08850	0,00033
640,68000	0,09053	0,00033
640,72000	0,09165	0,00047
640,76000	0,08407	0,00057
640,80000	0,08493	0,00040
640,84000	0,08941	0,00048
640,88000	0,08956	0,00041
640,92000	0,08748	0,00033
640,96000	0,09231	0,00038
641,00000	0,08687	0,00053
641,04000	0,09033	0,00036
641,08000	0,08824	0,00038
641,12000	0,08794	0,00050
641,16000	0,08773	0,00020
641,20000	0,08600	0,00034
641,24000	0,08962	0,00034
641,28000	0,08758	0,00034
641,32000	0,08946	0,00044
641,36000	0,08783	0,00023
641,40000	0,08753	0,00047
641,44000	0,08778	0,00053
641,48000	0,08931	0,00058
641,52000	0,08580	0,00023
641,56000	0,09323	0,00034
641,60000	0,09216	0,00025
641,64000	0,08936	0,00076
641,68000	0,09053	0,00040
641,72000	0,09623	0,00025
641,76000	0,09608	0,00050
641,80000	0,09425	0,00025
641,84000	0,09048	0,00055
641,88000	0,09720	0,00034
641,92000	0,09343	0,00039
641,96000	0,09231	0,00038
642,00000	0,09822	0,00034
642,04000	0,09827	0,00041
642,08000	0,09440	0,00027
642,12000	0,09786	0,00046
642,16000	0,10189	0,00034
642,20000	0,10387	0,00034
642,24000	0,10565	0,00051
642,28000	0,10377	0,00033
642,32000	0,10387	0,00034
642,36000	0,10749	0,00057
642,40000	0,11421	0,00071
642,44000	0,11894	0,00036
642,48000	0,12149	0,00048
642,52000	0,12154	0,00050
642,56000	0,13004	0,00036
642,60000	0,13289	0,00052
642,64000	0,13284	0,00065
642,68000	0,14328	0,00036
642,72000	0,15071	0,00057
642,76000	0,15652	0,00036
642,80000	0,15275	0,00025
642,84000	0,16970	0,00038
642,88000	0,16716	0,00020
642,92000	0,16680	0,00042
642,96000	0,17897	0,00023
643,00000	0,18671	0,00044
643,04000	0,18401	0,00036
643,08000	0,18554	0,00027
643,12000	0,19409	0,00040
643,16000	0,20000	0,00033
643,20000	0,19175	0,00027
643,24000	0,19149	0,00057
643,28000	0,19261	0,00059
643,32000	0,20091	0,00042
643,36000	0,19989	0,00048
643,40000	0,19526	0,00051
643,44000	0,19058	0,00050
643,48000	0,18773	0,00020
643,52000	0,18762	0,00023
643,56000	0,19429	0,00048
643,60000	0,18381	0,00052
643,64000	0,17709	0,00033
643,68000	0,17907	0,00031
643,72000	0,16690	0,00051
643,76000	0,16227	0,00031
643,80000	0,16222	0,00042
643,84000	0,15937	0,00034
643,88000	0,15265	0,00051
643,92000	0,14165	0,00033
643,96000	0,14613	0,00052
644,00000	0,13503	0,00051
644,04000	0,13116	0,00027
644,08000	0,12256	0,00038
644,12000	0,12240	0,00027
644,16000	0,11492	0,00055
644,20000	0,11400	0,00052
644,24000	0,11029	0,00048
644,28000	0,11034	0,00031
644,32000	0,09965	0,00044
644,36000	0,10372	0,00020
644,40000	0,10372	0,00038
644,44000	0,10005	0,00039
644,48000	0,09420	0,00047
644,52000	0,10015	0,00031
644,56000	0,09155	0,00046
644,60000	0,09221	0,00034
644,64000	0,09700	0,00032
644,68000	0,09690	0,00038
644,72000	0,08916	0,00057
644,76000	0,09812	0,00038
644,80000	0,08977	0,00050
644,84000	0,08198	0,00025
644,88000	0,09236	0,00048
644,92000	0,08946	0,00044
644,96000	0,09038	0,00039
645,00000	0,09058	0,00052
645,04000	0,08967	0,00025
645,08000	0,08570	0,00038
645,12000	0,08401	0,00041
645,16000	0,08483	0,00027
645,20000	0,08855	0,00041
645,24000	0,09140	0,00023
645,28000	0,09150	0,00044
645,32000	0,08814	0,00041
645,36000	0,08865	0,00052
645,40000	0,08941	0,00042
645,44000	0,08687	0,00053
645,48000	0,09221	0,00034
645,52000	0,08941	0,00048
645,56000	0,08682	0,00039
645,60000	0,08651	0,00041
645,64000	0,08941	0,00042
645,68000	0,08936	0,00051
645,72000	0,08651	0,00034
645,76000	0,08931	0,00048
645,80000	0,09140	0,00039
645,84000	0,08788	0,00042
645,88000	0,08763	0,00025
645,92000	0,08951	0,00046
645,96000	0,08972	0,00033
646,00000	0,09313	0,00034
646,04000	0,08717	0,00051
646,08000	0,08936	0,00032
646,12000	0,08946	0,00038
646,16000	0,08941	0,00048
646,20000	0,08956	0,00034
646,24000	0,09303	0,00050
646,28000	0,09201	0,00031
646,32000	0,09155	0,00033
646,36000	0,08951	0,00040
646,40000	0,08671	0,00055
646,44000	0,09348	0,00027
646,48000	0,09333	0,00055
646,52000	0,09348	0,00048
646,56000	0,09247	0,00066
646,60000	0,09048	0,00031
646,64000	0,09323	0,00041
646,68000	0,09318	0,00034
646,72000	0,09603	0,00027
646,76000	0,09629	0,00025
646,80000	0,09588	0,00044
646,84000	0,09888	0,00060
646,88000	0,10000	0,00042
646,92000	0,09532	0,00040
646,96000	0,10275	0,00023
647,00000	0,10555	0,00038
647,04000	0,10560	0,00042
647,08000	0,10545	0,00041
647,12000	0,11039	0,00056
647,16000	0,10912	0,00038
647,20000	0,11609	0,00034
647,24000	0,11777	0,00031
647,28000	0,12632	0,00047
647,32000	0,12088	0,00027
647,36000	0,12072	0,00034
647,40000	0,12653	0,00046
647,44000	0,13320	0,00027
647,48000	0,12531	0,00057
647,52000	0,13381	0,00046
647,56000	0,13386	0,00047
647,60000	0,13228	0,00046
647,64000	0,13203	0,00044
647,68000	0,12256	0,00044
647,72000	0,12347	0,00039
647,76000	0,13004	0,00053
647,80000	0,13376	0,00038
647,84000	0,12245	0,00023
647,88000	0,12821	0,00046
647,92000	0,12856	0,00032
647,96000	0,12337	0,00038
648,00000	0,12368	0,00047
648,04000	0,11772	0,00046
648,08000	0,11507	0,00025
648,12000	0,11416	0,00040
648,16000	0,11594	0,00064
648,20000	0,10647	0,00047
648,24000	0,10626	0,00020
648,28000	0,10453	0,00031
648,32000	0,10087	0,00034
648,36000	0,09786	0,00046
648,40000	0,10295	0,00033
648,44000	0,09720	0,00073
648,48000	0,09430	0,00023
648,52000	0,09435	0,00031
648,56000	0,09445	0,00023
648,60000	0,09018	0,00034
648,64000	0,09715	0,00033
648,68000	0,09613	0,00033
648,72000	0,09206	0,00040
648,76000	0,09033	0,00042
648,80000	0,08651	0,00061
648,84000	0,08661	0,00047
648,88000	0,08692	0,00031
648,92000	0,08977	0,00044
648,96000	0,09318	0,00057
649,00000	0,09226	0,00056
649,04000	0,08748	0,00033
649,08000	0,09160	0,00041
649,12000	0,09165	0,00034
649,16000	0,09231	0,00044
649,20000	0,08844	0,00050
649,24000	0,08951	0,00046
649,28000	0,09150	0,00064
649,32000	0,08844	0,00038
649,36000	0,08967	0,00041
649,40000	0,08962	0,00047
649,44000	0,08962	0,00047
649,48000	0,08682	0,00039
649,52000	0,08967	0,00047
649,56000	0,08855	0,00025
649,60000	0,08885	0,00051
649,64000	0,08768	0,00033
649,68000	0,08498	0,00047
649,72000	0,08473	0,00048
649,76000	0,08676	0,00027
649,80000	0,09313	0,00047
649,84000	0,08682	0,00051
649,88000	0,08396	0,00034
649,92000	0,08763	0,00052
649,96000	0,08483	0,00042
650,00000	0,08493	0,00056
650,04000	0,09033	0,00042
650,08000	0,08666	0,00046
650,12000	0,08386	0,00031
650,16000	0,08676	0,00048
650,20000	0,08676	0,00042
650,24000	0,08585	0,00036
650,28000	0,08580	0,00039
650,32000	0,08967	0,00034
650,36000	0,08778	0,00042
650,40000	0,08926	0,00038
650,44000	0,09135	0,00042
650,48000	0,08941	0,00062
650,52000	0,08788	0,00036
650,56000	0,08666	0,00040
650,60000	0,08687	0,00048
650,64000	0,08193	0,00034
650,68000	0,08004	0,00033
650,72000	0,08386	0,00031
650,76000	0,08193	0,00069
650,80000	0,08590	0,00031
650,84000	0,09216	0,00041
650,88000	0,09221	0,00034
650,92000	0,08478	0,00023
650,96000	0,08167	0,00048
651,00000	0,08473	0,00027
651,04000	0,08478	0,00056
651,08000	0,08850	0,00040
651,12000	0,08417	0,00031
651,16000	0,09038	0,00039
651,20000	0,09058	0,00061
651,24000	0,08096	0,00041
651,28000	0,08386	0,00038
651,32000	0,08381	0,00036
651,36000	0,08585	0,00015
651,40000	0,08600	0,00041
651,44000	0,08773	0,00044
651,48000	0,08768	0,00040
651,52000	0,08768	0,00033
651,56000	0,08391	0,00046
651,60000	0,08300	0,00025
651,64000	0,08946	0,00038
651,68000	0,08967	0,00034
651,72000	0,09033	0,00048
651,76000	0,09038	0,00032
651,80000	0,08554	0,00047
651,84000	0,08860	0,00034
651,88000	0,08590	0,00038
651,92000	0,08188	0,00051
651,96000	0,08600	0,00025
652,00000	0,08478	0,00046
652,04000	0,08962	0,00041
652,08000	0,08972	0,00033
652,12000	0,08682	0,00032
652,16000	0,08493	0,00046
652,20000	0,08671	0,00050
652,24000	0,08488	0,00055
652,28000	0,09048	0,00031
652,32000	0,08503	0,00047
652,36000	0,08447	0,00047
652,40000	0,08575	0,00027
652,44000	0,08687	0,00048
652,48000	0,08962	0,00047
652,52000	0,08870	0,00040
652,56000	0,08850	0,00033
652,60000	0,08788	0,00042
652,64000	0,08773	0,00055
652,68000	0,08666	0,00046
652,72000	0,08671	0,00038
652,76000	0,08956	0,00041
652,80000	0,08478	0,00046
652,84000	0,08951	0,00040
652,88000	0,08651	0,00052
652,92000	0,08386	0,00038
652,96000	0,08376	0,00039
653,00000	0,09063	0,00047
653,04000	0,08671	0,00050
653,08000	0,08865	0,00034
653,12000	0,08773	0,00020
653,16000	0,08310	0,00051
653,20000	0,08844	0,00050
653,24000	0,08875	0,00059
653,28000	0,08962	0,00025
653,32000	0,08580	0,00023
653,36000	0,08463	0,00046
653,40000	0,07994	0,00041
653,44000	0,08493	0,00046
653,48000	0,08386	0,00038
653,52000	0,08738	0,00036
653,56000	0,08788	0,00015
653,60000	0,08951	0,00046
653,64000	0,09410	0,00033
653,68000	0,09236	0,00027
653,72000	0,08570	0,00038
653,76000	0,08483	0,00042
653,80000	0,08300	0,00041
653,84000	0,08315	0,00044
653,88000	0,08671	0,00044
653,92000	0,08834	0,00051
653,96000	0,09135	0,00042
654,00000	0,08692	0,00044
654,04000	0,08086	0,00033
654,08000	0,08676	0,00036
654,12000	0,08692	0,00038
654,16000	0,08401	0,00034
654,20000	0,08595	0,00051
654,24000	0,08763	0,00034
654,28000	0,08804	0,00047
654,32000	0,08101	0,00047
654,36000	0,08580	0,00023
654,40000	0,08473	0,00042
654,44000	0,08483	0,00048
654,48000	0,08656	0,00034
654,52000	0,08320	0,00027
654,56000	0,08778	0,00053
654,60000	0,08962	0,00047
654,64000	0,08463	0,00033
654,68000	0,08946	0,00038
654,72000	0,08941	0,00027
654,76000	0,09038	0,00039
654,80000	0,08763	0,00034
654,84000	0,07974	0,00015
654,88000	0,08682	0,00046
654,92000	0,09018	0,00041
654,96000	0,08183	0,00038
655,00000	0,08213	0,00038
655,04000	0,08183	0,00038
655,08000	0,08177	0,00036
655,12000	0,08676	0,00062
655,16000	0,08768	0,00033
655,20000	0,09135	0,00036
655,24000	0,08595	0,00033
655,28000	0,08600	0,00041
655,32000	0,08595	0,00033
655,36000	0,08106	0,00046
655,40000	0,08590	0,00044
655,44000	0,08656	0,00034
655,48000	0,08839	0,00036
655,52000	0,08580	0,00046
655,56000	0,08570	0,00038
